#### t[ps] ### MACF <Q(0)*Q(t)> 
0.010000              1.000000E+00  
0.030000              9.771439E-01  
0.050000              9.677207E-01  
0.070000              9.593418E-01  
0.090000              9.514847E-01  
0.110000              9.441495E-01  
0.130000              9.367264E-01  
0.150000              9.295422E-01  
0.170000              9.224443E-01  
0.190000              9.158032E-01  
0.210000              9.091179E-01  
0.230000              9.024101E-01  
0.250000              8.961156E-01  
0.270000              8.897987E-01  
0.290000              8.838297E-01  
0.310000              8.780780E-01  
0.330000              8.719771E-01  
0.350000              8.658974E-01  
0.370000              8.600132E-01  
0.390000              8.541938E-01  
0.410000              8.483739E-01  
0.430000              8.427059E-01  
0.450000              8.373207E-01  
0.470000              8.318041E-01  
0.490000              8.265704E-01  
0.510000              8.214016E-01  
0.530000              8.159489E-01  
0.550000              8.106700E-01  
0.570000              8.054342E-01  
0.590000              8.000889E-01  
0.610000              7.949610E-01  
0.630000              7.897673E-01  
0.650000              7.846602E-01  
0.670000              7.795527E-01  
0.690000              7.746627E-01  
0.710000              7.697286E-01  
0.730000              7.647722E-01  
0.750000              7.599244E-01  
0.770000              7.552288E-01  
0.790000              7.505327E-01  
0.810000              7.458798E-01  
0.830000              7.413355E-01  
0.850000              7.367907E-01  
0.870000              7.322891E-01  
0.890000              7.278526E-01  
0.910000              7.232846E-01  
0.930000              7.189781E-01  
0.950000              7.147803E-01  
0.970000              7.106912E-01  
0.990000              7.064270E-01  
1.010000              7.024026E-01  
1.030000              6.980284E-01  
1.050000              6.939595E-01  
1.070000              6.900429E-01  
1.090000              6.857112E-01  
1.110000              6.817720E-01  
1.130000              6.773958E-01  
1.150000              6.733247E-01  
1.170000              6.691660E-01  
1.190000              6.650942E-01  
1.210000              6.612403E-01  
1.230000              6.574734E-01  
1.250000              6.535751E-01  
1.270000              6.499604E-01  
1.290000              6.464545E-01  
1.310000              6.428608E-01  
1.330000              6.392450E-01  
1.350000              6.358909E-01  
1.370000              6.325147E-01  
1.390000              6.290944E-01  
1.410000              6.256301E-01  
1.430000              6.222966E-01  
1.450000              6.188534E-01  
1.470000              6.153007E-01  
1.490000              6.120535E-01  
1.510000              6.089153E-01  
1.530000              6.055801E-01  
1.550000              6.024412E-01  
1.570000              5.991490E-01  
1.590000              5.957691E-01  
1.610000              5.926730E-01  
1.630000              5.894017E-01  
1.650000              5.863268E-01  
1.670000              5.834703E-01  
1.690000              5.803948E-01  
1.710000              5.774721E-01  
1.730000              5.745053E-01  
1.750000              5.714946E-01  
1.770000              5.684616E-01  
1.790000              5.655158E-01  
1.810000              5.628541E-01  
1.830000              5.601264E-01  
1.850000              5.573329E-01  
1.870000              5.544079E-01  
1.890000              5.515481E-01  
1.910000              5.487975E-01  
1.930000              5.462654E-01  
1.950000              5.436236E-01  
1.970000              5.409378E-01  
1.990000              5.382955E-01  
2.010000              5.356092E-01  
2.030000              5.330320E-01  
2.050000              5.304983E-01  
2.070000              5.279425E-01  
2.090000              5.254521E-01  
2.110000              5.230052E-01  
2.130000              5.203610E-01  
2.150000              5.179793E-01  
2.170000              5.153128E-01  
2.190000              5.126678E-01  
2.210000              5.100445E-01  
2.230000              5.075086E-01  
2.250000              5.049942E-01  
2.270000              5.026329E-01  
2.290000              5.002932E-01  
2.310000              4.978876E-01  
2.330000              4.955256E-01  
2.350000              4.932947E-01  
2.370000              4.910198E-01  
2.390000              4.887447E-01  
2.410000              4.864913E-01  
2.430000              4.841719E-01  
2.450000              4.819618E-01  
2.470000              4.797515E-01  
2.490000              4.774314E-01  
2.510000              4.752206E-01  
2.530000              4.730316E-01  
2.550000              4.709299E-01  
2.570000              4.688500E-01  
2.590000              4.668794E-01  
2.610000              4.649962E-01  
2.630000              4.630253E-01  
2.650000              4.609226E-01  
2.670000              4.588635E-01  
2.690000              4.568700E-01  
2.710000              4.549421E-01  
2.730000              4.529701E-01  
2.750000              4.508883E-01  
2.770000              4.489378E-01  
2.790000              4.471407E-01  
2.810000              4.453214E-01  
2.830000              4.435677E-01  
2.850000              4.417919E-01  
2.870000              4.399282E-01  
2.890000              4.381082E-01  
2.910000              4.363099E-01  
2.930000              4.345115E-01  
2.950000              4.327567E-01  
2.970000              4.309359E-01  
2.990000              4.291369E-01  
3.010000              4.274036E-01  
3.030000              4.259333E-01  
3.050000              4.243751E-01  
3.070000              4.227510E-01  
3.090000              4.210389E-01  
3.110000              4.194583E-01  
3.130000              4.178336E-01  
3.150000              4.161210E-01  
3.170000              4.144960E-01  
3.190000              4.130026E-01  
3.210000              4.113992E-01  
3.230000              4.096859E-01  
3.250000              4.079725E-01  
3.270000              4.061930E-01  
3.290000              4.045890E-01  
3.310000              4.029189E-01  
3.330000              4.011829E-01  
3.350000              3.997101E-01  
3.370000              3.983469E-01  
3.390000              3.969178E-01  
3.410000              3.954006E-01  
3.430000              3.938833E-01  
3.450000              3.924977E-01  
3.470000              3.911118E-01  
3.490000              3.896819E-01  
3.510000              3.882300E-01  
3.530000              3.867339E-01  
3.550000              3.851937E-01  
3.570000              3.836314E-01  
3.590000              3.822008E-01  
3.610000              3.808140E-01  
3.630000              3.793611E-01  
3.650000              3.777982E-01  
3.670000              3.762791E-01  
3.690000              3.746500E-01  
3.710000              3.731965E-01  
3.730000              3.717429E-01  
3.750000              3.702451E-01  
3.770000              3.689670E-01  
3.790000              3.677108E-01  
3.810000              3.664544E-01  
3.830000              3.650441E-01  
3.850000              3.636116E-01  
3.870000              3.622229E-01  
3.890000              3.607021E-01  
3.910000              3.594451E-01  
3.930000              3.580560E-01  
3.950000              3.567547E-01  
3.970000              3.554093E-01  
3.990000              3.541078E-01  
4.010000              3.528061E-01  
4.030000              3.513943E-01  
4.050000              3.500704E-01  
4.070000              3.487903E-01  
4.090000              3.474001E-01  
4.110000              3.461198E-01  
4.130000              3.447733E-01  
4.150000              3.434487E-01  
4.170000              3.422120E-01  
4.190000              3.408211E-01  
4.210000              3.395401E-01  
4.230000              3.382369E-01  
4.250000              3.369557E-01  
4.270000              3.356743E-01  
4.290000              3.343708E-01  
4.310000              3.332432E-01  
4.330000              3.319614E-01  
4.350000              3.306355E-01  
4.370000              3.294195E-01  
4.390000              3.282034E-01  
4.410000              3.269651E-01  
4.430000              3.258588E-01  
4.450000              3.245983E-01  
4.470000              3.233817E-01  
4.490000              3.222090E-01  
4.510000              3.211023E-01  
4.530000              3.200394E-01  
4.550000              3.188444E-01  
4.570000              3.177153E-01  
4.590000              3.165640E-01  
4.610000              3.155889E-01  
4.630000              3.144814E-01  
4.650000              3.134180E-01  
4.670000              3.125306E-01  
4.690000              3.116652E-01  
4.710000              3.107997E-01  
4.730000              3.098680E-01  
4.750000              3.089803E-01  
4.770000              3.080044E-01  
4.790000              3.070063E-01  
4.810000              3.058539E-01  
4.830000              3.049217E-01  
4.850000              3.037911E-01  
4.870000              3.027265E-01  
4.890000              3.017499E-01  
4.910000              3.006190E-01  
4.930000              2.996422E-01  
4.950000              2.986213E-01  
4.970000              2.975561E-01  
4.990000              2.963145E-01  
5.010000              2.952491E-01  
5.030000              2.941396E-01  
5.050000              2.930299E-01  
5.070000              2.920744E-01  
5.090000              2.911410E-01  
5.110000              2.903397E-01  
5.130000              2.896266E-01  
5.150000              2.886929E-01  
5.170000              2.879134E-01  
5.190000              2.870457E-01  
5.210000              2.862661E-01  
5.230000              2.853540E-01  
5.250000              2.844860E-01  
5.270000              2.836400E-01  
5.290000              2.828600E-01  
5.310000              2.819918E-01  
5.330000              2.811896E-01  
5.350000              2.803212E-01  
5.370000              2.793423E-01  
5.390000              2.784957E-01  
5.410000              2.775608E-01  
5.430000              2.765817E-01  
5.450000              2.756245E-01  
5.470000              2.746672E-01  
5.490000              2.736656E-01  
5.510000              2.727744E-01  
5.530000              2.718389E-01  
5.550000              2.709254E-01  
5.570000              2.700118E-01  
5.590000              2.690097E-01  
5.610000              2.681180E-01  
5.630000              2.672041E-01  
5.650000              2.663343E-01  
5.670000              2.653982E-01  
5.690000              2.645503E-01  
5.710000              2.637244E-01  
5.730000              2.627658E-01  
5.750000              2.619398E-01  
5.770000              2.609810E-01  
5.790000              2.599781E-01  
5.810000              2.589971E-01  
5.830000              2.580601E-01  
5.850000              2.569464E-01  
5.870000              2.559872E-01  
5.890000              2.549395E-01  
5.910000              2.538917E-01  
5.930000              2.529543E-01  
5.950000              2.519063E-01  
5.970000              2.509245E-01  
5.990000              2.499205E-01  
6.010000              2.489827E-01  
6.030000              2.479563E-01  
6.050000              2.470626E-01  
6.070000              2.461245E-01  
6.090000              2.451421E-01  
6.110000              2.440490E-01  
6.130000              2.429780E-01  
6.150000              2.419953E-01  
6.170000              2.410567E-01  
6.190000              2.400517E-01  
6.210000              2.390908E-01  
6.230000              2.382182E-01  
6.250000              2.373235E-01  
6.270000              2.364508E-01  
6.290000              2.353568E-01  
6.310000              2.345061E-01  
6.330000              2.336773E-01  
6.350000              2.326273E-01  
6.370000              2.317541E-01  
6.390000              2.309915E-01  
6.410000              2.302067E-01  
6.430000              2.294218E-01  
6.450000              2.285704E-01  
6.470000              2.278296E-01  
6.490000              2.272215E-01  
6.510000              2.265248E-01  
6.530000              2.259166E-01  
6.550000              2.252419E-01  
6.570000              2.246557E-01  
6.590000              2.241801E-01  
6.610000              2.235716E-01  
6.630000              2.230295E-01  
6.650000              2.224652E-01  
6.670000              2.217901E-01  
6.690000              2.211371E-01  
6.710000              2.205505E-01  
6.730000              2.198752E-01  
6.750000              2.193106E-01  
6.770000              2.187681E-01  
6.790000              2.181148E-01  
6.810000              2.175057E-01  
6.830000              2.170073E-01  
6.850000              2.164424E-01  
6.870000              2.157667E-01  
6.890000              2.151130E-01  
6.910000              2.145036E-01  
6.930000              2.139606E-01  
6.950000              2.134176E-01  
6.970000              2.128302E-01  
6.990000              2.122649E-01  
7.010000              2.117217E-01  
7.030000              2.111562E-01  
7.050000              2.105464E-01  
7.070000              2.098922E-01  
7.090000              2.093931E-01  
7.110000              2.087831E-01  
7.130000              2.081731E-01  
7.150000              2.076516E-01  
7.170000              2.070636E-01  
7.190000              2.065421E-01  
7.210000              2.060648E-01  
7.230000              2.055875E-01  
7.250000              2.051323E-01  
7.270000              2.046992E-01  
7.290000              2.042440E-01  
7.310000              2.038552E-01  
7.330000              2.033776E-01  
7.350000              2.029222E-01  
7.370000              2.024889E-01  
7.390000              2.020112E-01  
7.410000              2.014669E-01  
7.430000              2.010335E-01  
7.450000              2.006666E-01  
7.470000              2.002109E-01  
7.490000              1.999327E-01  
7.510000              1.994325E-01  
7.530000              1.989989E-01  
7.550000              1.987649E-01  
7.570000              1.983978E-01  
7.590000              1.980084E-01  
7.610000              1.976634E-01  
7.630000              1.972296E-01  
7.650000              1.967513E-01  
7.670000              1.962508E-01  
7.690000              1.958168E-01  
7.710000              1.954050E-01  
7.730000              1.949931E-01  
7.750000              1.945146E-01  
7.770000              1.939694E-01  
7.790000              1.934686E-01  
7.810000              1.930122E-01  
7.830000              1.925779E-01  
7.850000              1.920991E-01  
7.870000              1.915537E-01  
7.890000              1.910526E-01  
7.910000              1.904849E-01  
7.930000              1.900281E-01  
7.950000              1.895269E-01  
7.970000              1.890034E-01  
7.990000              1.884799E-01  
8.010000              1.879119E-01  
8.030000              1.872549E-01  
8.050000              1.865979E-01  
8.070000              1.859408E-01  
8.090000              1.851947E-01  
8.110000              1.845597E-01  
8.130000              1.839024E-01  
8.150000              1.832673E-01  
8.170000              1.826988E-01  
8.190000              1.821079E-01  
8.210000              1.814504E-01  
8.230000              1.807705E-01  
8.250000              1.802018E-01  
8.270000              1.795440E-01  
8.290000              1.789751E-01  
8.310000              1.785173E-01  
8.330000              1.780151E-01  
8.350000              1.774460E-01  
8.370000              1.767657E-01  
8.390000              1.762632E-01  
8.410000              1.757607E-01  
8.430000              1.753249E-01  
8.450000              1.749112E-01  
8.470000              1.744086E-01  
8.490000              1.739504E-01  
8.510000              1.734254E-01  
8.530000              1.729003E-01  
8.550000              1.725087E-01  
8.570000              1.720948E-01  
8.590000              1.717031E-01  
8.610000              1.711555E-01  
8.630000              1.706970E-01  
8.650000              1.702607E-01  
8.670000              1.698465E-01  
8.690000              1.692765E-01  
8.710000              1.687510E-01  
8.730000              1.682700E-01  
8.750000              1.677221E-01  
8.770000              1.674413E-01  
8.790000              1.669601E-01  
8.810000              1.663898E-01  
8.830000              1.658640E-01  
8.850000              1.653381E-01  
8.870000              1.648790E-01  
8.890000              1.644866E-01  
8.910000              1.640942E-01  
8.930000              1.637240E-01  
8.950000              1.633315E-01  
8.970000              1.629390E-01  
8.990000              1.624796E-01  
9.010000              1.620647E-01  
9.030000              1.616498E-01  
9.050000              1.613016E-01  
9.070000              1.609757E-01  
9.090000              1.605829E-01  
9.110000              1.601901E-01  
9.130000              1.598418E-01  
9.150000              1.594266E-01  
9.170000              1.590783E-01  
9.190000              1.586184E-01  
9.210000              1.582254E-01  
9.230000              1.578324E-01  
9.250000              1.574170E-01  
9.270000              1.569793E-01  
9.290000              1.565415E-01  
9.310000              1.560368E-01  
9.330000              1.555767E-01  
9.350000              1.551611E-01  
9.370000              1.546785E-01  
9.390000              1.543520E-01  
9.410000              1.540478E-01  
9.430000              1.536097E-01  
9.450000              1.532831E-01  
9.470000              1.528449E-01  
9.490000              1.524067E-01  
9.510000              1.519016E-01  
9.530000              1.515079E-01  
9.550000              1.511365E-01  
9.570000              1.506758E-01  
9.590000              1.502151E-01  
9.610000              1.498212E-01  
9.630000              1.493827E-01  
9.650000              1.489219E-01  
9.670000              1.485725E-01  
9.690000              1.482454E-01  
9.710000              1.479183E-01  
9.730000              1.476581E-01  
9.750000              1.473532E-01  
9.770000              1.471153E-01  
9.790000              1.468997E-01  
9.810000              1.466840E-01  
9.830000              1.464683E-01  
9.850000              1.462749E-01  
9.870000              1.461038E-01  
9.890000              1.458211E-01  
9.910000              1.456500E-01  
9.930000              1.454119E-01  
9.950000              1.451960E-01  
9.970000              1.449802E-01  
9.990000              1.447197E-01  
10.010000             1.445931E-01  
10.030000             1.443772E-01  
10.050000             1.442729E-01  
10.070000             1.441240E-01  
10.090000             1.439527E-01  
10.110000             1.437144E-01  
10.130000             1.435654E-01  
10.150000             1.435281E-01  
10.170000             1.433791E-01  
10.190000             1.432524E-01  
10.210000             1.432150E-01  
10.230000             1.432000E-01  
10.250000             1.430957E-01  
10.270000             1.429913E-01  
10.290000             1.428422E-01  
10.310000             1.427378E-01  
10.330000             1.424993E-01  
10.350000             1.423501E-01  
10.370000             1.421563E-01  
10.390000             1.418506E-01  
10.410000             1.416567E-01  
10.430000             1.414404E-01  
10.450000             1.413136E-01  
10.470000             1.411420E-01  
10.490000             1.408809E-01  
10.510000             1.406645E-01  
10.530000             1.404929E-01  
10.550000             1.403212E-01  
10.570000             1.402613E-01  
10.590000             1.400672E-01  
10.610000             1.399402E-01  
10.630000             1.399027E-01  
10.650000             1.397533E-01  
10.670000             1.396039E-01  
10.690000             1.394321E-01  
10.710000             1.393498E-01  
10.730000             1.393122E-01  
10.750000             1.392075E-01  
10.770000             1.391252E-01  
10.790000             1.390204E-01  
10.810000             1.388933E-01  
10.830000             1.388333E-01  
10.850000             1.387062E-01  
10.870000             1.385566E-01  
10.890000             1.384071E-01  
10.910000             1.382351E-01  
10.930000             1.381303E-01  
10.950000             1.379136E-01  
10.970000             1.377640E-01  
10.990000             1.376591E-01  
11.010000             1.375095E-01  
11.030000             1.374270E-01  
11.050000             1.373221E-01  
11.070000             1.370605E-01  
11.090000             1.369107E-01  
11.110000             1.368730E-01  
11.130000             1.367681E-01  
11.150000             1.365959E-01  
11.170000             1.364462E-01  
11.190000             1.362516E-01  
11.210000             1.361018E-01  
11.230000             1.359072E-01  
11.250000             1.358918E-01  
11.270000             1.358540E-01  
11.290000             1.357041E-01  
11.310000             1.355543E-01  
11.330000             1.354044E-01  
11.350000             1.352993E-01  
11.370000             1.352615E-01  
11.390000             1.350443E-01  
11.410000             1.349616E-01  
11.430000             1.348341E-01  
11.450000             1.347962E-01  
11.470000             1.346238E-01  
11.490000             1.344290E-01  
11.510000             1.341893E-01  
11.530000             1.340393E-01  
11.550000             1.337548E-01  
11.570000             1.336047E-01  
11.590000             1.333650E-01  
11.610000             1.331476E-01  
11.630000             1.329975E-01  
11.650000             1.328249E-01  
11.670000             1.326075E-01  
11.690000             1.326143E-01  
11.710000             1.324866E-01  
11.730000             1.324486E-01  
11.750000             1.323657E-01  
11.770000             1.322379E-01  
11.790000             1.321325E-01  
11.810000             1.320945E-01  
11.830000             1.319667E-01  
11.850000             1.318388E-01  
11.870000             1.316661E-01  
11.890000             1.314485E-01  
11.910000             1.313206E-01  
11.930000             1.311703E-01  
11.950000             1.310873E-01  
11.970000             1.310267E-01  
11.990000             1.308539E-01  
12.010000             1.306811E-01  
12.030000             1.304634E-01  
12.050000             1.302232E-01  
12.070000             1.300503E-01  
12.090000             1.299672E-01  
12.110000             1.297494E-01  
12.130000             1.295764E-01  
12.150000             1.295607E-01  
12.170000             1.293652E-01  
12.190000             1.291698E-01  
12.210000             1.289070E-01  
12.230000             1.285992E-01  
12.250000             1.284037E-01  
12.270000             1.280959E-01  
12.290000             1.279003E-01  
12.310000             1.276823E-01  
12.330000             1.274193E-01  
12.350000             1.271338E-01  
12.370000             1.269382E-01  
12.390000             1.266301E-01  
12.410000             1.262772E-01  
12.430000             1.259466E-01  
12.450000             1.255936E-01  
12.470000             1.251731E-01  
12.490000             1.249099E-01  
12.510000             1.247140E-01  
12.530000             1.243608E-01  
12.550000             1.240975E-01  
12.570000             1.236319E-01  
12.590000             1.232561E-01  
12.610000             1.229028E-01  
12.630000             1.226394E-01  
12.650000             1.222410E-01  
12.670000             1.218651E-01  
12.690000             1.216015E-01  
12.710000             1.214279E-01  
12.730000             1.212768E-01  
12.750000             1.210581E-01  
12.770000             1.207945E-01  
12.790000             1.205534E-01  
12.810000             1.203122E-01  
12.830000             1.201159E-01  
12.850000             1.198522E-01  
12.870000             1.195659E-01  
12.890000             1.194146E-01  
12.910000             1.191508E-01  
12.930000             1.187520E-01  
12.950000             1.184881E-01  
12.970000             1.182467E-01  
12.990000             1.179603E-01  
13.010000             1.176964E-01  
13.030000             1.175224E-01  
13.050000             1.172809E-01  
13.070000             1.171744E-01  
13.090000             1.170004E-01  
13.110000             1.168039E-01  
13.130000             1.165398E-01  
13.150000             1.163432E-01  
13.170000             1.161691E-01  
13.190000             1.159500E-01  
13.210000             1.157758E-01  
13.230000             1.155116E-01  
13.250000             1.152699E-01  
13.270000             1.150056E-01  
13.290000             1.147638E-01  
13.310000             1.145671E-01  
13.330000             1.143703E-01  
13.350000             1.141284E-01  
13.370000             1.139992E-01  
13.390000             1.136897E-01  
13.410000             1.134253E-01  
13.430000             1.132960E-01  
13.450000             1.130315E-01  
13.470000             1.128571E-01  
13.490000             1.125925E-01  
13.510000             1.124181E-01  
13.530000             1.122436E-01  
13.550000             1.120016E-01  
13.570000             1.117144E-01  
13.590000             1.114722E-01  
13.610000             1.112977E-01  
13.630000             1.111006E-01  
13.650000             1.109035E-01  
13.670000             1.106613E-01  
13.690000             1.102612E-01  
13.710000             1.100189E-01  
13.730000             1.097315E-01  
13.750000             1.094892E-01  
13.770000             1.092017E-01  
13.790000             1.089142E-01  
13.810000             1.086493E-01  
13.830000             1.084519E-01  
13.850000             1.082094E-01  
13.870000             1.079895E-01  
13.890000             1.077470E-01  
13.910000             1.075496E-01  
13.930000             1.072844E-01  
13.950000             1.071321E-01  
13.970000             1.068895E-01  
13.990000             1.066468E-01  
14.010000             1.064493E-01  
14.030000             1.061615E-01  
14.050000             1.059414E-01  
14.070000             1.057437E-01  
14.090000             1.055461E-01  
14.110000             1.053710E-01  
14.130000             1.051734E-01  
14.150000             1.050660E-01  
14.170000             1.048683E-01  
14.190000             1.046931E-01  
14.210000             1.044728E-01  
14.230000             1.042751E-01  
14.250000             1.041224E-01  
14.270000             1.039472E-01  
14.290000             1.037268E-01  
14.310000             1.035741E-01  
14.330000             1.033989E-01  
14.350000             1.032687E-01  
14.370000             1.031386E-01  
14.390000             1.030084E-01  
14.410000             1.029686E-01  
14.430000             1.028836E-01  
14.450000             1.027534E-01  
14.470000             1.026910E-01  
14.490000             1.025833E-01  
14.510000             1.024757E-01  
14.530000             1.022777E-01  
14.550000             1.021248E-01  
14.570000             1.019945E-01  
14.590000             1.018191E-01  
14.610000             1.016662E-01  
14.630000             1.014907E-01  
14.650000             1.012473E-01  
14.670000             1.010040E-01  
14.690000             1.007606E-01  
14.710000             1.005624E-01  
14.730000             1.004094E-01  
14.750000             1.003242E-01  
14.770000             1.000807E-01  
14.790000             9.995024E-02  
14.810000             9.979717E-02  
14.830000             9.973452E-02  
14.850000             9.960403E-02  
14.870000             9.947352E-02  
14.890000             9.938823E-02  
14.910000             9.925770E-02  
14.930000             9.919501E-02  
14.950000             9.920016E-02  
14.970000             9.927317E-02  
14.990000             9.930095E-02  
15.010000             9.932873E-02  
15.030000             9.931126E-02  
15.050000             9.933905E-02  
15.070000             9.925371E-02  
15.090000             9.923624E-02  
15.110000             9.924140E-02  
15.130000             9.924655E-02  
15.150000             9.918382E-02  
15.170000             9.912109E-02  
15.190000             9.917150E-02  
15.210000             9.910876E-02  
15.230000             9.909127E-02  
15.250000             9.907379E-02  
15.270000             9.898839E-02  
15.290000             9.892563E-02  
15.310000             9.888549E-02  
15.330000             9.884535E-02  
15.350000             9.885049E-02  
15.370000             9.881035E-02  
15.390000             9.879284E-02  
15.410000             9.873005E-02  
15.430000             9.880312E-02  
15.450000             9.880826E-02  
15.470000             9.885869E-02  
15.490000             9.884118E-02  
15.510000             9.891428E-02  
15.530000             9.898738E-02  
15.550000             9.899252E-02  
15.570000             9.902033E-02  
15.590000             9.904813E-02  
15.610000             9.907594E-02  
15.630000             9.917173E-02  
15.650000             9.926752E-02  
15.670000             9.931801E-02  
15.690000             9.936850E-02  
15.710000             9.937367E-02  
15.730000             9.942417E-02  
15.750000             9.952000E-02  
15.770000             9.966117E-02  
15.790000             9.977970E-02  
15.810000             9.978489E-02  
15.830000             9.972208E-02  
15.850000             9.977261E-02  
15.870000             9.973246E-02  
15.890000             9.973765E-02  
15.910000             9.972017E-02  
15.930000             9.974804E-02  
15.950000             9.982126E-02  
15.970000             9.978111E-02  
15.990000             9.983166E-02  
16.010000             9.976882E-02  
16.030000             9.975133E-02  
16.050000             9.973385E-02  
16.070000             9.978441E-02  
16.090000             9.981229E-02  
16.110000             9.986286E-02  
16.130000             9.989075E-02  
16.150000             9.991865E-02  
16.170000             9.990116E-02  
16.190000             9.988368E-02  
16.210000             9.986619E-02  
16.230000             9.996217E-02  
16.250000             9.999007E-02  
16.270000             9.997259E-02  
16.290000             9.990971E-02  
16.310000             9.984682E-02  
16.330000             9.973853E-02  
16.350000             9.965293E-02  
16.370000             9.961272E-02  
16.390000             9.954981E-02  
16.410000             9.946418E-02  
16.430000             9.935585E-02  
16.450000             9.929291E-02  
16.470000             9.922997E-02  
16.490000             9.914431E-02  
16.510000             9.910406E-02  
16.530000             9.906381E-02  
16.550000             9.897813E-02  
16.570000             9.891515E-02  
16.590000             9.885217E-02  
16.610000             9.874374E-02  
16.630000             9.865803E-02  
16.650000             9.854959E-02  
16.670000             9.846385E-02  
16.690000             9.835539E-02  
16.710000             9.829236E-02  
16.730000             9.825204E-02  
16.750000             9.807538E-02  
16.770000             9.783052E-02  
16.790000             9.765382E-02  
16.810000             9.752255E-02  
16.830000             9.736854E-02  
16.850000             9.728271E-02  
16.870000             9.712867E-02  
16.890000             9.699735E-02  
16.910000             9.684328E-02  
16.930000             9.668920E-02  
16.950000             9.644415E-02  
16.970000             9.619908E-02  
16.990000             9.595399E-02  
17.010000             9.573161E-02  
17.030000             9.553195E-02  
17.050000             9.530952E-02  
17.070000             9.517804E-02  
17.090000             9.495557E-02  
17.110000             9.475583E-02  
17.130000             9.448782E-02  
17.150000             9.419704E-02  
17.170000             9.386073E-02  
17.190000             9.363814E-02  
17.210000             9.339277E-02  
17.230000             9.305637E-02  
17.250000             9.276544E-02  
17.270000             9.249723E-02  
17.290000             9.218348E-02  
17.310000             9.184694E-02  
17.330000             9.155589E-02  
17.350000             9.126480E-02  
17.370000             9.092817E-02  
17.390000             9.059149E-02  
17.410000             9.027755E-02  
17.430000             8.998634E-02  
17.450000             8.962680E-02  
17.470000             8.928998E-02  
17.490000             8.899867E-02  
17.510000             8.870733E-02  
17.530000             8.834765E-02  
17.550000             8.803347E-02  
17.570000             8.776481E-02  
17.590000             8.749611E-02  
17.610000             8.722739E-02  
17.630000             8.698142E-02  
17.650000             8.671264E-02  
17.670000             8.646662E-02  
17.690000             8.622056E-02  
17.710000             8.595171E-02  
17.730000             8.570560E-02  
17.750000             8.539112E-02  
17.770000             8.505383E-02  
17.790000             8.476206E-02  
17.810000             8.444749E-02  
17.830000             8.417845E-02  
17.850000             8.393218E-02  
17.870000             8.357192E-02  
17.890000             8.332559E-02  
17.910000             8.310203E-02  
17.930000             8.281006E-02  
17.950000             8.251805E-02  
17.970000             8.227162E-02  
17.990000             8.200235E-02  
18.010000             8.184706E-02  
18.030000             8.157774E-02  
18.050000             8.121720E-02  
18.070000             8.085662E-02  
18.090000             8.054160E-02  
18.110000             8.024936E-02  
18.130000             7.986586E-02  
18.150000             7.955075E-02  
18.170000             7.923560E-02  
18.190000             7.892042E-02  
18.210000             7.858240E-02  
18.230000             7.826715E-02  
18.250000             7.792905E-02  
18.270000             7.763655E-02  
18.290000             7.732121E-02  
18.310000             7.700582E-02  
18.330000             7.666759E-02  
18.350000             7.630651E-02  
18.370000             7.603667E-02  
18.390000             7.572115E-02  
18.410000             7.547407E-02  
18.430000             7.520414E-02  
18.450000             7.507114E-02  
18.470000             7.486964E-02  
18.490000             7.466811E-02  
18.510000             7.453506E-02  
18.530000             7.437916E-02  
18.550000             7.420041E-02  
18.570000             7.399881E-02  
18.590000             7.372869E-02  
18.610000             7.341287E-02  
18.630000             7.321120E-02  
18.650000             7.298667E-02  
18.670000             7.278496E-02  
18.690000             7.262890E-02  
18.710000             7.244999E-02  
18.730000             7.222537E-02  
18.750000             7.206926E-02  
18.770000             7.186744E-02  
18.790000             7.168845E-02  
18.810000             7.144090E-02  
18.830000             7.128472E-02  
18.850000             7.105997E-02  
18.870000             7.094944E-02  
18.890000             7.074751E-02  
18.910000             7.049984E-02  
18.930000             7.027501E-02  
18.950000             7.011871E-02  
18.970000             6.996240E-02  
18.990000             6.985178E-02  
19.010000             6.971830E-02  
19.030000             6.953908E-02  
19.050000             6.929126E-02  
19.070000             6.906628E-02  
19.090000             6.886414E-02  
19.110000             6.868484E-02  
19.130000             6.850552E-02  
19.150000             6.832618E-02  
19.170000             6.821543E-02  
19.190000             6.808179E-02  
19.210000             6.790241E-02  
19.230000             6.774587E-02  
19.250000             6.758932E-02  
19.270000             6.745562E-02  
19.290000             6.732192E-02  
19.310000             6.709669E-02  
19.330000             6.696295E-02  
19.350000             6.676056E-02  
19.370000             6.655814E-02  
19.390000             6.642435E-02  
19.410000             6.631343E-02  
19.430000             6.617961E-02  
19.450000             6.604578E-02  
19.470000             6.595771E-02  
19.490000             6.584674E-02  
19.510000             6.575864E-02  
19.530000             6.562476E-02  
19.550000             6.546798E-02  
19.570000             6.537985E-02  
19.590000             6.529171E-02  
19.610000             6.522646E-02  
19.630000             6.518410E-02  
19.650000             6.507304E-02  
19.670000             6.496197E-02  
19.690000             6.491959E-02  
19.710000             6.490010E-02  
19.730000             6.472030E-02  
19.750000             6.463210E-02  
19.770000             6.449807E-02  
19.790000             6.443275E-02  
19.810000             6.441323E-02  
19.830000             6.437080E-02  
19.850000             6.435128E-02  
19.870000             6.424011E-02  
19.890000             6.419767E-02  
19.910000             6.415522E-02  
19.930000             6.418151E-02  
19.950000             6.420781E-02  
19.970000             6.423410E-02  
19.990000             6.419165E-02  
20.010000             6.417211E-02  
20.030000             6.417548E-02  
20.050000             6.420178E-02  
20.070000             6.429685E-02  
20.090000             6.446070E-02  
20.110000             6.464749E-02  
20.130000             6.476552E-02  
20.150000             6.486064E-02  
20.170000             6.493284E-02  
20.190000             6.500505E-02  
20.210000             6.510019E-02  
20.230000             6.521828E-02  
20.250000             6.531345E-02  
20.270000             6.540862E-02  
20.290000             6.545794E-02  
20.310000             6.550726E-02  
20.330000             6.555659E-02  
20.350000             6.558298E-02  
20.370000             6.560938E-02  
20.390000             6.554401E-02  
20.410000             6.559335E-02  
20.430000             6.568858E-02  
20.450000             6.573793E-02  
20.470000             6.574139E-02  
20.490000             6.576781E-02  
20.510000             6.577127E-02  
20.530000             6.591244E-02  
20.550000             6.589296E-02  
20.570000             6.589643E-02  
20.590000             6.587695E-02  
20.610000             6.592633E-02  
20.630000             6.590685E-02  
20.650000             6.579554E-02  
20.670000             6.575309E-02  
20.690000             6.573360E-02  
20.710000             6.571411E-02  
20.730000             6.569461E-02  
20.750000             6.569807E-02  
20.770000             6.565561E-02  
20.790000             6.561314E-02  
20.810000             6.554770E-02  
20.830000             6.552819E-02  
20.850000             6.537086E-02  
20.870000             6.530540E-02  
20.890000             6.519398E-02  
20.910000             6.526634E-02  
20.930000             6.517789E-02  
20.950000             6.506645E-02  
20.970000             6.497797E-02  
20.990000             6.484353E-02  
21.010000             6.466312E-02  
21.030000             6.452865E-02  
21.050000             6.437119E-02  
21.070000             6.414476E-02  
21.090000             6.398726E-02  
21.110000             6.389869E-02  
21.130000             6.376415E-02  
21.150000             6.360660E-02  
21.170000             6.342605E-02  
21.190000             6.326847E-02  
21.210000             6.311087E-02  
21.230000             6.293026E-02  
21.250000             6.284161E-02  
21.270000             6.275295E-02  
21.290000             6.261829E-02  
21.310000             6.257560E-02  
21.330000             6.250991E-02  
21.350000             6.242121E-02  
21.370000             6.230950E-02  
21.390000             6.224379E-02  
21.410000             6.220107E-02  
21.430000             6.211234E-02  
21.450000             6.202360E-02  
21.470000             6.202687E-02  
21.490000             6.198413E-02  
21.510000             6.198741E-02  
21.530000             6.189864E-02  
21.550000             6.183288E-02  
21.570000             6.183614E-02  
21.590000             6.181640E-02  
21.610000             6.181966E-02  
21.630000             6.191500E-02  
21.650000             6.191827E-02  
21.670000             6.201362E-02  
21.690000             6.201690E-02  
21.710000             6.195111E-02  
21.730000             6.183927E-02  
21.750000             6.186557E-02  
21.770000             6.177674E-02  
21.790000             6.168790E-02  
21.810000             6.166813E-02  
21.830000             6.167139E-02  
21.850000             6.160556E-02  
21.870000             6.153973E-02  
21.890000             6.151995E-02  
21.910000             6.150017E-02  
21.930000             6.141128E-02  
21.950000             6.134542E-02  
21.970000             6.134867E-02  
21.990000             6.132888E-02  
22.010000             6.130908E-02  
22.030000             6.122016E-02  
22.050000             6.124644E-02  
22.070000             6.115751E-02  
22.090000             6.109161E-02  
22.110000             6.102571E-02  
22.130000             6.095980E-02  
22.150000             6.091692E-02  
22.170000             6.087405E-02  
22.190000             6.087727E-02  
22.210000             6.083439E-02  
22.230000             6.074540E-02  
22.250000             6.063334E-02  
22.270000             6.061350E-02  
22.290000             6.052448E-02  
22.310000             6.036627E-02  
22.330000             6.027723E-02  
22.350000             6.023430E-02  
22.370000             6.016831E-02  
22.390000             6.007924E-02  
22.410000             5.996710E-02  
22.430000             5.987802E-02  
22.450000             5.985812E-02  
22.470000             5.979209E-02  
22.490000             5.970298E-02  
22.510000             5.949851E-02  
22.530000             5.929402E-02  
22.550000             5.918180E-02  
22.570000             5.911571E-02  
22.590000             5.891116E-02  
22.610000             5.875275E-02  
22.630000             5.864048E-02  
22.650000             5.852819E-02  
22.670000             5.836973E-02  
22.690000             5.830358E-02  
22.710000             5.807584E-02  
22.730000             5.794042E-02  
22.750000             5.775881E-02  
22.770000             5.760027E-02  
22.790000             5.734936E-02  
22.810000             5.709842E-02  
22.830000             5.687055E-02  
22.850000             5.666575E-02  
22.870000             5.650711E-02  
22.890000             5.625607E-02  
22.910000             5.600501E-02  
22.930000             5.577702E-02  
22.950000             5.557210E-02  
22.970000             5.536716E-02  
22.990000             5.511600E-02  
23.010000             5.484172E-02  
23.030000             5.454430E-02  
23.050000             5.426995E-02  
23.070000             5.408799E-02  
23.090000             5.392912E-02  
23.110000             5.377023E-02  
23.130000             5.358822E-02  
23.150000             5.340619E-02  
23.170000             5.322413E-02  
23.190000             5.308829E-02  
23.210000             5.288309E-02  
23.230000             5.274721E-02  
23.250000             5.258820E-02  
23.270000             5.242917E-02  
23.290000             5.229324E-02  
23.310000             5.206483E-02  
23.330000             5.188263E-02  
23.350000             5.170041E-02  
23.370000             5.154129E-02  
23.390000             5.140528E-02  
23.410000             5.129238E-02  
23.430000             5.120260E-02  
23.450000             5.111281E-02  
23.470000             5.097675E-02  
23.490000             5.091006E-02  
23.510000             5.079711E-02  
23.530000             5.066101E-02  
23.550000             5.050176E-02  
23.570000             5.038877E-02  
23.590000             5.027576E-02  
23.610000             5.013961E-02  
23.630000             5.007286E-02  
23.650000             4.998296E-02  
23.670000             4.982362E-02  
23.690000             4.968741E-02  
23.710000             4.955119E-02  
23.730000             4.941495E-02  
23.750000             4.927870E-02  
23.770000             4.918873E-02  
23.790000             4.902930E-02  
23.810000             4.886986E-02  
23.830000             4.866409E-02  
23.850000             4.852777E-02  
23.870000             4.829881E-02  
23.890000             4.806983E-02  
23.910000             4.791029E-02  
23.930000             4.770442E-02  
23.950000             4.756800E-02  
23.970000             4.740841E-02  
23.990000             4.720248E-02  
24.010000             4.704286E-02  
24.030000             4.683689E-02  
24.050000             4.667722E-02  
24.070000             4.658704E-02  
24.090000             4.645052E-02  
24.110000             4.629081E-02  
24.130000             4.615425E-02  
24.150000             4.604085E-02  
24.170000             4.590427E-02  
24.190000             4.586037E-02  
24.210000             4.567741E-02  
24.230000             4.567984E-02  
24.250000             4.561274E-02  
24.270000             4.552245E-02  
24.290000             4.543216E-02  
24.310000             4.536503E-02  
24.330000             4.522835E-02  
24.350000             4.513803E-02  
24.370000             4.502451E-02  
24.390000             4.491098E-02  
24.410000             4.477425E-02  
24.430000             4.466069E-02  
24.450000             4.452393E-02  
24.470000             4.438716E-02  
24.490000             4.427356E-02  
24.510000             4.425272E-02  
24.530000             4.416230E-02  
24.550000             4.400229E-02  
24.570000             4.393504E-02  
24.590000             4.377499E-02  
24.610000             4.370773E-02  
24.630000             4.361725E-02  
24.650000             4.348036E-02  
24.670000             4.336667E-02  
24.690000             4.325295E-02  
24.710000             4.316244E-02  
24.730000             4.309512E-02  
24.750000             4.300458E-02  
24.770000             4.293724E-02  
24.790000             4.286990E-02  
24.810000             4.280255E-02  
24.830000             4.273519E-02  
24.850000             4.266783E-02  
24.870000             4.262367E-02  
24.890000             4.255629E-02  
24.910000             4.251213E-02  
24.930000             4.244474E-02  
24.950000             4.240056E-02  
24.970000             4.230993E-02  
24.990000             4.228897E-02  
25.010000             4.226800E-02  
25.030000             4.227025E-02  
25.050000             4.229573E-02  
25.070000             4.236767E-02  
25.090000             4.239316E-02  
25.110000             4.241865E-02  
25.130000             4.246738E-02  
25.150000             4.246965E-02  
25.170000             4.247191E-02  
25.190000             4.242771E-02  
25.210000             4.236026E-02  
25.230000             4.231605E-02  
25.250000             4.224859E-02  
25.270000             4.222760E-02  
25.290000             4.220661E-02  
25.310000             4.213914E-02  
25.330000             4.211814E-02  
25.350000             4.209715E-02  
25.370000             4.209939E-02  
25.390000             4.207839E-02  
25.410000             4.205739E-02  
25.430000             4.210614E-02  
25.450000             4.217814E-02  
25.470000             4.234316E-02  
25.490000             4.243844E-02  
25.510000             4.253372E-02  
25.530000             4.262902E-02  
25.550000             4.265456E-02  
25.570000             4.272661E-02  
25.590000             4.284519E-02  
25.610000             4.291727E-02  
25.630000             4.296608E-02  
25.650000             4.308470E-02  
25.670000             4.313353E-02  
25.690000             4.320563E-02  
25.710000             4.318467E-02  
25.730000             4.321025E-02  
25.750000             4.321256E-02  
25.770000             4.326141E-02  
25.790000             4.331027E-02  
25.810000             4.328931E-02  
25.830000             4.324507E-02  
25.850000             4.320083E-02  
25.870000             4.320314E-02  
25.890000             4.322873E-02  
25.910000             4.320776E-02  
25.930000             4.321007E-02  
25.950000             4.323566E-02  
25.970000             4.321469E-02  
25.990000             4.321700E-02  
26.010000             4.319603E-02  
26.030000             4.312847E-02  
26.050000             4.308420E-02  
26.070000             4.308651E-02  
26.090000             4.304223E-02  
26.110000             4.316099E-02  
26.130000             4.309342E-02  
26.150000             4.311902E-02  
26.170000             4.307474E-02  
26.190000             4.305374E-02  
26.210000             4.307935E-02  
26.230000             4.308165E-02  
26.250000             4.313056E-02  
26.270000             4.308626E-02  
26.290000             4.315848E-02  
26.310000             4.323070E-02  
26.330000             4.318640E-02  
26.350000             4.321202E-02  
26.370000             4.323764E-02  
26.390000             4.321665E-02  
26.410000             4.326558E-02  
26.430000             4.329121E-02  
26.450000             4.331684E-02  
26.470000             4.336579E-02  
26.490000             4.336811E-02  
26.510000             4.339375E-02  
26.530000             4.339608E-02  
26.550000             4.346836E-02  
26.570000             4.342405E-02  
26.590000             4.342637E-02  
26.610000             4.340538E-02  
26.630000             4.338438E-02  
26.650000             4.345668E-02  
26.670000             4.352899E-02  
26.690000             4.360131E-02  
26.710000             4.362697E-02  
26.730000             4.365264E-02  
26.750000             4.370164E-02  
26.770000             4.375065E-02  
26.790000             4.386967E-02  
26.810000             4.391869E-02  
26.830000             4.396772E-02  
26.850000             4.411011E-02  
26.870000             4.422918E-02  
26.890000             4.434825E-02  
26.910000             4.451403E-02  
26.930000             4.463313E-02  
26.950000             4.475225E-02  
26.970000             4.482469E-02  
26.990000             4.494383E-02  
27.010000             4.499293E-02  
27.030000             4.504205E-02  
27.050000             4.511452E-02  
27.070000             4.507023E-02  
27.090000             4.507265E-02  
27.110000             4.512177E-02  
27.130000             4.510084E-02  
27.150000             4.517333E-02  
27.170000             4.519911E-02  
27.190000             4.527162E-02  
27.210000             4.525068E-02  
27.230000             4.525311E-02  
27.250000             4.527890E-02  
27.270000             4.532806E-02  
27.290000             4.526039E-02  
27.310000             4.519272E-02  
27.330000             4.512504E-02  
27.350000             4.510409E-02  
27.370000             4.505977E-02  
27.390000             4.506219E-02  
27.410000             4.501786E-02  
27.430000             4.499690E-02  
27.450000             4.511620E-02  
27.470000             4.514200E-02  
27.490000             4.523794E-02  
27.510000             4.526374E-02  
27.530000             4.521941E-02  
27.550000             4.522184E-02  
27.570000             4.524765E-02  
27.590000             4.522670E-02  
27.610000             4.525251E-02  
27.630000             4.520817E-02  
27.650000             4.523398E-02  
27.670000             4.528319E-02  
27.690000             4.530902E-02  
27.710000             4.535824E-02  
27.730000             4.540746E-02  
27.750000             4.545669E-02  
27.770000             4.552932E-02  
27.790000             4.564876E-02  
27.810000             4.565121E-02  
27.830000             4.574726E-02  
27.850000             4.586673E-02  
27.870000             4.596280E-02  
27.890000             4.605889E-02  
27.910000             4.615498E-02  
27.930000             4.625109E-02  
27.950000             4.632380E-02  
27.970000             4.641993E-02  
27.990000             4.649265E-02  
28.010000             4.656539E-02  
28.030000             4.663813E-02  
28.050000             4.675771E-02  
28.070000             4.683047E-02  
28.090000             4.692665E-02  
28.110000             4.706968E-02  
28.130000             4.721272E-02  
28.150000             4.726210E-02  
28.170000             4.731149E-02  
28.190000             4.738430E-02  
28.210000             4.743370E-02  
28.230000             4.752995E-02  
28.250000             4.764964E-02  
28.270000             4.772249E-02  
28.290000             4.774849E-02  
28.310000             4.782135E-02  
28.330000             4.787078E-02  
28.350000             4.799052E-02  
28.370000             4.808684E-02  
28.390000             4.813630E-02  
28.410000             4.820920E-02  
28.430000             4.828211E-02  
28.450000             4.840190E-02  
28.470000             4.852171E-02  
28.490000             4.857121E-02  
28.510000             4.862071E-02  
28.530000             4.874055E-02  
28.550000             4.888384E-02  
28.570000             4.895681E-02  
28.590000             4.907669E-02  
28.610000             4.926693E-02  
28.630000             4.943373E-02  
28.650000             4.960056E-02  
28.670000             4.974395E-02  
28.690000             4.986390E-02  
28.710000             5.000732E-02  
28.730000             5.010384E-02  
28.750000             5.020037E-02  
28.770000             5.032037E-02  
28.790000             5.048731E-02  
28.810000             5.063080E-02  
28.830000             5.075084E-02  
28.850000             5.094129E-02  
28.870000             5.106137E-02  
28.890000             5.115799E-02  
28.910000             5.132502E-02  
28.930000             5.144514E-02  
28.950000             5.154179E-02  
28.970000             5.161498E-02  
28.990000             5.175861E-02  
29.010000             5.185530E-02  
29.030000             5.195199E-02  
29.050000             5.204870E-02  
29.070000             5.214542E-02  
29.090000             5.224215E-02  
29.110000             5.231541E-02  
29.130000             5.243564E-02  
29.150000             5.250892E-02  
29.170000             5.258221E-02  
29.190000             5.270247E-02  
29.210000             5.277578E-02  
29.230000             5.277862E-02  
29.250000             5.285194E-02  
29.270000             5.292526E-02  
29.290000             5.297510E-02  
29.310000             5.311892E-02  
29.330000             5.321577E-02  
29.350000             5.326563E-02  
29.370000             5.338599E-02  
29.390000             5.345937E-02  
29.410000             5.353275E-02  
29.430000             5.362965E-02  
29.450000             5.363254E-02  
29.470000             5.368244E-02  
29.490000             5.377936E-02  
29.510000             5.382928E-02  
29.530000             5.394972E-02  
29.550000             5.395263E-02  
29.570000             5.404959E-02  
29.590000             5.409953E-02  
29.610000             5.424352E-02  
29.630000             5.434051E-02  
29.650000             5.448453E-02  
29.670000             5.455802E-02  
29.690000             5.460800E-02  
29.710000             5.472855E-02  
29.730000             5.473150E-02  
29.750000             5.478150E-02  
29.770000             5.492560E-02  
29.790000             5.506971E-02  
29.810000             5.516679E-02  
29.830000             5.516977E-02  
29.850000             5.519628E-02  
29.870000             5.522279E-02  
29.890000             5.527283E-02  
29.910000             5.532288E-02  
29.930000             5.542000E-02  
29.950000             5.547007E-02  
29.970000             5.554367E-02  
29.990000             5.564082E-02  
30.010000             5.569090E-02  
30.030000             5.569391E-02  
30.050000             5.579109E-02  
30.070000             5.588827E-02  
30.090000             5.593838E-02  
30.110000             5.605912E-02  
30.130000             5.615634E-02  
30.150000             5.627711E-02  
30.170000             5.642144E-02  
30.190000             5.649514E-02  
30.210000             5.661595E-02  
30.230000             5.671322E-02  
30.250000             5.685761E-02  
30.270000             5.688424E-02  
30.290000             5.698154E-02  
30.310000             5.703173E-02  
30.330000             5.715261E-02  
30.350000             5.720282E-02  
30.370000             5.732372E-02  
30.390000             5.737395E-02  
30.410000             5.742418E-02  
30.430000             5.749798E-02  
30.450000             5.757179E-02  
30.470000             5.759847E-02  
30.490000             5.762516E-02  
30.510000             5.762828E-02  
30.530000             5.767854E-02  
30.550000             5.770523E-02  
30.570000             5.773193E-02  
30.590000             5.773506E-02  
30.610000             5.773818E-02  
30.630000             5.774131E-02  
30.650000             5.779159E-02  
30.670000             5.777114E-02  
30.690000             5.777427E-02  
30.710000             5.775381E-02  
30.730000             5.778053E-02  
30.750000             5.787800E-02  
30.770000             5.788113E-02  
30.790000             5.793144E-02  
30.810000             5.795817E-02  
30.830000             5.791413E-02  
30.850000             5.794086E-02  
30.870000             5.794400E-02  
30.890000             5.789995E-02  
30.910000             5.785589E-02  
30.930000             5.792982E-02  
30.950000             5.793296E-02  
30.970000             5.795970E-02  
30.990000             5.798644E-02  
31.010000             5.803678E-02  
31.030000             5.801633E-02  
31.050000             5.806668E-02  
31.070000             5.806983E-02  
31.090000             5.807298E-02  
31.110000             5.805252E-02  
31.130000             5.812649E-02  
31.150000             5.815325E-02  
31.170000             5.820363E-02  
31.190000             5.825401E-02  
31.210000             5.830440E-02  
31.230000             5.828395E-02  
31.250000             5.828711E-02  
31.270000             5.836112E-02  
31.290000             5.838791E-02  
31.310000             5.836746E-02  
31.330000             5.844149E-02  
31.350000             5.844466E-02  
31.370000             5.840058E-02  
31.390000             5.838012E-02  
31.410000             5.831241E-02  
31.430000             5.817380E-02  
31.450000             5.810607E-02  
31.470000             5.801469E-02  
31.490000             5.792331E-02  
31.510000             5.783192E-02  
31.530000             5.771688E-02  
31.550000             5.767274E-02  
31.570000             5.760496E-02  
31.590000             5.751353E-02  
31.610000             5.739845E-02  
31.630000             5.725972E-02  
31.650000             5.716826E-02  
31.670000             5.705314E-02  
31.690000             5.684343E-02  
31.710000             5.670464E-02  
31.730000             5.656583E-02  
31.750000             5.645066E-02  
31.770000             5.631182E-02  
31.790000             5.614932E-02  
31.810000             5.601045E-02  
31.830000             5.584791E-02  
31.850000             5.566170E-02  
31.870000             5.554644E-02  
31.890000             5.538385E-02  
31.910000             5.517392E-02  
31.930000             5.505861E-02  
31.950000             5.489597E-02  
31.970000             5.478064E-02  
31.990000             5.471262E-02  
32.010000             5.459727E-02  
32.030000             5.452923E-02  
32.050000             5.446119E-02  
32.070000             5.436947E-02  
32.090000             5.427774E-02  
32.110000             5.428069E-02  
32.130000             5.421262E-02  
32.150000             5.416822E-02  
32.170000             5.417116E-02  
32.190000             5.412675E-02  
32.210000             5.415338E-02  
32.230000             5.415632E-02  
32.250000             5.411190E-02  
32.270000             5.404380E-02  
32.290000             5.395200E-02  
32.310000             5.393125E-02  
32.330000             5.388681E-02  
32.350000             5.386605E-02  
32.370000             5.386899E-02  
32.390000             5.387192E-02  
32.410000             5.389854E-02  
32.430000             5.387778E-02  
32.450000             5.388071E-02  
32.470000             5.390734E-02  
32.490000             5.391027E-02  
32.510000             5.393690E-02  
32.530000             5.401094E-02  
32.550000             5.408498E-02  
32.570000             5.406422E-02  
32.590000             5.409086E-02  
32.610000             5.416492E-02  
32.630000             5.416787E-02  
32.650000             5.424194E-02  
32.670000             5.426860E-02  
32.690000             5.429527E-02  
32.710000             5.434565E-02  
32.730000             5.439603E-02  
32.750000             5.437528E-02  
32.770000             5.435452E-02  
32.790000             5.433377E-02  
32.810000             5.431301E-02  
32.830000             5.424481E-02  
32.850000             5.427149E-02  
32.870000             5.420328E-02  
32.890000             5.408762E-02  
32.910000             5.399567E-02  
32.930000             5.387998E-02  
32.950000             5.385919E-02  
32.970000             5.376722E-02  
32.990000             5.377015E-02  
33.010000             5.370189E-02  
33.030000             5.365735E-02  
33.050000             5.354161E-02  
33.070000             5.344959E-02  
33.090000             5.345250E-02  
33.110000             5.336047E-02  
33.130000             5.322095E-02  
33.150000             5.317637E-02  
33.170000             5.303683E-02  
33.190000             5.292101E-02  
33.210000             5.285266E-02  
33.230000             5.273682E-02  
33.250000             5.264471E-02  
33.270000             5.252885E-02  
33.290000             5.241297E-02  
33.310000             5.239208E-02  
33.330000             5.229993E-02  
33.350000             5.216027E-02  
33.370000             5.199684E-02  
33.390000             5.190466E-02  
33.410000             5.174119E-02  
33.430000             5.160147E-02  
33.450000             5.148549E-02  
33.470000             5.132198E-02  
33.490000             5.125349E-02  
33.510000             5.113748E-02  
33.530000             5.097392E-02  
33.550000             5.083411E-02  
33.570000             5.076558E-02  
33.590000             5.062575E-02  
33.610000             5.048589E-02  
33.630000             5.044111E-02  
33.650000             5.032500E-02  
33.670000             5.028020E-02  
33.690000             5.021163E-02  
33.710000             5.009549E-02  
33.730000             5.000312E-02  
33.750000             4.991073E-02  
33.770000             4.984212E-02  
33.790000             4.974972E-02  
33.810000             4.975243E-02  
33.830000             4.966002E-02  
33.850000             4.961516E-02  
33.870000             4.952273E-02  
33.890000             4.945407E-02  
33.910000             4.936162E-02  
33.930000             4.931673E-02  
33.950000             4.927184E-02  
33.970000             4.917937E-02  
33.990000             4.913446E-02  
34.010000             4.904197E-02  
34.030000             4.899705E-02  
34.050000             4.895214E-02  
34.070000             4.888341E-02  
34.090000             4.881469E-02  
34.110000             4.872215E-02  
34.130000             4.858199E-02  
34.150000             4.851323E-02  
34.170000             4.839686E-02  
34.190000             4.832808E-02  
34.210000             4.821168E-02  
34.230000             4.811908E-02  
34.250000             4.793123E-02  
34.270000             4.783860E-02  
34.290000             4.772215E-02  
34.310000             4.758187E-02  
34.330000             4.744157E-02  
34.350000             4.737272E-02  
34.370000             4.728003E-02  
34.390000             4.716352E-02  
34.410000             4.707081E-02  
34.430000             4.700192E-02  
34.450000             4.688537E-02  
34.470000             4.674499E-02  
34.490000             4.660459E-02  
34.510000             4.653565E-02  
34.530000             4.641905E-02  
34.550000             4.627861E-02  
34.570000             4.623348E-02  
34.590000             4.609301E-02  
34.610000             4.592870E-02  
34.630000             4.581203E-02  
34.650000             4.564768E-02  
34.670000             4.557867E-02  
34.690000             4.546196E-02  
34.710000             4.544061E-02  
34.730000             4.532389E-02  
34.750000             4.525484E-02  
34.770000             4.511425E-02  
34.790000             4.499749E-02  
34.810000             4.495226E-02  
34.830000             4.481163E-02  
34.850000             4.471868E-02  
34.870000             4.462573E-02  
34.890000             4.450891E-02  
34.910000             4.441593E-02  
34.930000             4.434680E-02  
34.950000             4.425380E-02  
34.970000             4.418465E-02  
34.990000             4.411550E-02  
35.010000             4.399861E-02  
35.030000             4.385785E-02  
35.050000             4.376480E-02  
35.070000             4.360015E-02  
35.090000             4.345935E-02  
35.110000             4.334239E-02  
35.130000             4.322543E-02  
35.150000             4.310845E-02  
35.170000             4.296759E-02  
35.190000             4.282671E-02  
35.210000             4.270969E-02  
35.230000             4.254491E-02  
35.250000             4.238011E-02  
35.270000             4.221529E-02  
35.290000             4.205045E-02  
35.310000             4.190948E-02  
35.330000             4.184013E-02  
35.350000             4.181854E-02  
35.370000             4.179695E-02  
35.390000             4.165594E-02  
35.410000             4.153879E-02  
35.430000             4.139774E-02  
35.450000             4.125667E-02  
35.470000             4.116338E-02  
35.490000             4.107007E-02  
35.510000             4.100064E-02  
35.530000             4.088342E-02  
35.550000             4.074229E-02  
35.570000             4.064893E-02  
35.590000             4.048388E-02  
35.610000             4.036660E-02  
35.630000             4.029711E-02  
35.650000             4.010810E-02  
35.670000             3.999079E-02  
35.690000             3.984955E-02  
35.710000             3.975612E-02  
35.730000             3.966267E-02  
35.750000             3.949748E-02  
35.770000             3.940401E-02  
35.790000             3.928662E-02  
35.810000             3.916921E-02  
35.830000             3.905179E-02  
35.850000             3.898219E-02  
35.870000             3.886475E-02  
35.890000             3.872337E-02  
35.910000             3.865374E-02  
35.930000             3.858410E-02  
35.950000             3.853838E-02  
35.970000             3.842088E-02  
35.990000             3.830337E-02  
36.010000             3.818584E-02  
36.030000             3.809223E-02  
36.050000             3.802254E-02  
36.070000             3.797677E-02  
36.090000             3.795492E-02  
36.110000             3.795701E-02  
36.130000             3.793516E-02  
36.150000             3.786544E-02  
36.170000             3.779571E-02  
36.190000             3.777385E-02  
36.210000             3.768017E-02  
36.230000             3.761042E-02  
36.250000             3.754066E-02  
36.270000             3.751879E-02  
36.290000             3.742507E-02  
36.310000             3.737924E-02  
36.330000             3.733340E-02  
36.350000             3.728756E-02  
36.370000             3.724171E-02  
36.390000             3.714795E-02  
36.410000             3.710209E-02  
36.430000             3.705622E-02  
36.450000             3.701035E-02  
36.470000             3.696448E-02  
36.490000             3.694255E-02  
36.510000             3.689667E-02  
36.530000             3.682682E-02  
36.550000             3.678092E-02  
36.570000             3.668709E-02  
36.590000             3.664118E-02  
36.610000             3.659527E-02  
36.630000             3.654935E-02  
36.650000             3.652739E-02  
36.670000             3.652940E-02  
36.690000             3.645950E-02  
36.710000             3.636562E-02  
36.730000             3.631967E-02  
36.750000             3.627372E-02  
36.770000             3.625175E-02  
36.790000             3.620579E-02  
36.810000             3.627972E-02  
36.830000             3.628171E-02  
36.850000             3.625973E-02  
36.870000             3.626173E-02  
36.890000             3.623974E-02  
36.910000             3.624174E-02  
36.930000             3.624373E-02  
36.950000             3.631769E-02  
36.970000             3.634368E-02  
36.990000             3.639367E-02  
37.010000             3.639567E-02  
37.030000             3.644566E-02  
37.050000             3.651966E-02  
37.070000             3.654566E-02  
37.090000             3.659567E-02  
37.110000             3.666968E-02  
37.130000             3.674370E-02  
37.150000             3.684173E-02  
37.170000             3.693977E-02  
37.190000             3.708583E-02  
37.210000             3.715989E-02  
37.230000             3.725797E-02  
37.250000             3.738006E-02  
37.270000             3.747816E-02  
37.290000             3.755225E-02  
37.310000             3.762636E-02  
37.330000             3.767646E-02  
37.350000             3.777460E-02  
37.370000             3.784873E-02  
37.390000             3.789885E-02  
37.410000             3.799701E-02  
37.430000             3.809519E-02  
37.450000             3.819337E-02  
37.470000             3.831559E-02  
37.490000             3.838977E-02  
37.510000             3.846397E-02  
37.530000             3.853817E-02  
37.550000             3.858835E-02  
37.570000             3.866257E-02  
37.590000             3.873679E-02  
37.610000             3.876296E-02  
37.630000             3.881316E-02  
37.650000             3.886338E-02  
37.670000             3.891359E-02  
37.690000             3.893978E-02  
37.710000             3.894193E-02  
37.730000             3.896811E-02  
37.750000             3.899431E-02  
37.770000             3.906859E-02  
37.790000             3.909479E-02  
37.810000             3.914504E-02  
37.830000             3.914720E-02  
37.850000             3.914936E-02  
37.870000             3.919962E-02  
37.890000             3.920178E-02  
37.910000             3.920395E-02  
37.930000             3.918206E-02  
37.950000             3.918423E-02  
37.970000             3.916233E-02  
37.990000             3.914044E-02  
38.010000             3.916666E-02  
38.030000             3.914477E-02  
38.050000             3.912287E-02  
38.070000             3.912503E-02  
38.090000             3.903094E-02  
38.110000             3.898496E-02  
38.130000             3.898712E-02  
38.150000             3.896521E-02  
38.170000             3.894329E-02  
38.190000             3.892137E-02  
38.210000             3.887538E-02  
38.230000             3.882939E-02  
38.250000             3.878338E-02  
38.270000             3.876145E-02  
38.290000             3.873952E-02  
38.310000             3.874166E-02  
38.330000             3.871972E-02  
38.350000             3.872186E-02  
38.370000             3.869992E-02  
38.390000             3.865390E-02  
38.410000             3.860787E-02  
38.430000             3.856183E-02  
38.450000             3.853987E-02  
38.470000             3.851792E-02  
38.490000             3.849596E-02  
38.510000             3.847400E-02  
38.530000             3.850022E-02  
38.550000             3.850235E-02  
38.570000             3.848038E-02  
38.590000             3.848251E-02  
38.610000             3.843645E-02  
38.630000             3.836627E-02  
38.650000             3.829610E-02  
38.670000             3.822591E-02  
38.690000             3.815571E-02  
38.710000             3.810962E-02  
38.730000             3.806351E-02  
38.750000             3.799330E-02  
38.770000             3.792308E-02  
38.790000             3.792518E-02  
38.810000             3.790316E-02  
38.830000             3.788115E-02  
38.850000             3.781091E-02  
38.870000             3.781300E-02  
38.890000             3.781509E-02  
38.910000             3.781719E-02  
38.930000             3.784340E-02  
38.950000             3.784550E-02  
38.970000             3.787172E-02  
38.990000             3.787381E-02  
39.010000             3.787591E-02  
39.030000             3.790214E-02  
39.050000             3.792836E-02  
39.070000             3.795459E-02  
39.090000             3.800496E-02  
39.110000             3.803120E-02  
39.130000             3.808157E-02  
39.150000             3.813195E-02  
39.170000             3.815820E-02  
39.190000             3.820859E-02  
39.210000             3.825898E-02  
39.230000             3.833352E-02  
39.250000             3.838393E-02  
39.270000             3.843434E-02  
39.290000             3.846061E-02  
39.310000             3.846274E-02  
39.330000             3.851317E-02  
39.350000             3.853945E-02  
39.370000             3.856574E-02  
39.390000             3.859203E-02  
39.410000             3.864247E-02  
39.430000             3.869292E-02  
39.450000             3.874337E-02  
39.470000             3.881799E-02  
39.490000             3.884430E-02  
39.510000             3.887061E-02  
39.530000             3.889693E-02  
39.550000             3.899573E-02  
39.570000             3.907038E-02  
39.590000             3.909671E-02  
39.610000             3.912305E-02  
39.630000             3.917355E-02  
39.650000             3.924823E-02  
39.670000             3.932291E-02  
39.690000             3.934927E-02  
39.710000             3.942397E-02  
39.730000             3.947450E-02  
39.750000             3.945252E-02  
39.770000             3.943053E-02  
39.790000             3.940854E-02  
39.810000             3.941073E-02  
39.830000             3.936456E-02  
39.850000             3.931838E-02  
39.870000             3.927220E-02  
39.890000             3.922602E-02  
39.910000             3.915564E-02  
39.930000             3.908526E-02  
39.950000             3.901486E-02  
39.970000             3.894446E-02  
39.990000             3.887405E-02  
40.010000             3.877945E-02  
40.030000             3.868483E-02  
40.050000             3.859020E-02  
40.070000             3.851976E-02  
40.090000             3.842511E-02  
40.110000             3.833045E-02  
40.130000             3.825998E-02  
40.150000             3.818950E-02  
40.170000             3.814322E-02  
40.190000             3.809693E-02  
40.210000             3.805064E-02  
40.230000             3.800434E-02  
40.250000             3.795804E-02  
40.270000             3.791173E-02  
40.290000             3.788963E-02  
40.310000             3.781910E-02  
40.330000             3.779699E-02  
40.350000             3.765380E-02  
40.370000             3.763168E-02  
40.390000             3.753690E-02  
40.410000             3.749055E-02  
40.430000             3.741998E-02  
40.450000             3.730095E-02  
40.470000             3.723036E-02  
40.490000             3.715976E-02  
40.510000             3.711337E-02  
40.530000             3.709121E-02  
40.550000             3.704482E-02  
40.570000             3.702265E-02  
40.590000             3.702471E-02  
40.610000             3.702677E-02  
40.630000             3.700460E-02  
40.650000             3.700666E-02  
40.670000             3.700872E-02  
40.690000             3.698654E-02  
40.710000             3.696436E-02  
40.730000             3.696642E-02  
40.750000             3.696847E-02  
40.770000             3.697053E-02  
40.790000             3.697259E-02  
40.810000             3.699889E-02  
40.830000             3.697671E-02  
40.850000             3.697877E-02  
40.870000             3.698083E-02  
40.890000             3.698288E-02  
40.910000             3.696069E-02  
40.930000             3.693850E-02  
40.950000             3.691630E-02  
40.970000             3.689410E-02  
40.990000             3.689615E-02  
41.010000             3.689821E-02  
41.030000             3.694879E-02  
41.050000             3.697511E-02  
41.070000             3.695290E-02  
41.090000             3.697923E-02  
41.110000             3.700555E-02  
41.130000             3.700762E-02  
41.150000             3.700968E-02  
41.170000             3.701174E-02  
41.190000             3.701380E-02  
41.210000             3.701587E-02  
41.230000             3.699366E-02  
41.250000             3.701999E-02  
41.270000             3.709489E-02  
41.290000             3.704840E-02  
41.310000             3.707474E-02  
41.330000             3.710109E-02  
41.350000             3.720029E-02  
41.370000             3.722665E-02  
41.390000             3.725301E-02  
41.410000             3.727937E-02  
41.430000             3.728145E-02  
41.450000             3.730782E-02  
41.470000             3.733419E-02  
41.490000             3.733627E-02  
41.510000             3.736265E-02  
41.530000             3.741332E-02  
41.550000             3.746400E-02  
41.570000             3.751469E-02  
41.590000             3.756538E-02  
41.610000             3.759177E-02  
41.630000             3.761817E-02  
41.650000             3.762027E-02  
41.670000             3.771958E-02  
41.690000             3.777030E-02  
41.710000             3.779672E-02  
41.730000             3.784744E-02  
41.750000             3.784955E-02  
41.770000             3.787598E-02  
41.790000             3.790240E-02  
41.810000             3.792883E-02  
41.830000             3.795527E-02  
41.850000             3.800602E-02  
41.870000             3.805677E-02  
41.890000             3.810754E-02  
41.910000             3.820695E-02  
41.930000             3.825772E-02  
41.950000             3.833283E-02  
41.970000             3.835929E-02  
41.990000             3.841009E-02  
42.010000             3.846089E-02  
42.030000             3.856035E-02  
42.050000             3.858683E-02  
42.070000             3.866198E-02  
42.090000             3.873714E-02  
42.110000             3.881231E-02  
42.130000             3.886314E-02  
42.150000             3.898700E-02  
42.170000             3.908653E-02  
42.190000             3.916173E-02  
42.210000             3.921260E-02  
42.230000             3.923913E-02  
42.250000             3.938739E-02  
42.270000             3.941393E-02  
42.290000             3.946483E-02  
42.310000             3.949138E-02  
42.330000             3.956664E-02  
42.350000             3.959320E-02  
42.370000             3.966847E-02  
42.390000             3.974374E-02  
42.410000             3.977032E-02  
42.430000             3.982126E-02  
42.450000             3.989655E-02  
42.470000             3.997186E-02  
42.490000             4.002282E-02  
42.510000             4.007378E-02  
42.530000             4.012474E-02  
42.550000             4.015135E-02  
42.570000             4.015360E-02  
42.590000             4.015585E-02  
42.610000             4.018246E-02  
42.630000             4.023345E-02  
42.650000             4.028444E-02  
42.670000             4.035981E-02  
42.690000             4.043519E-02  
42.710000             4.051058E-02  
42.730000             4.053722E-02  
42.750000             4.058824E-02  
42.770000             4.059051E-02  
42.790000             4.061717E-02  
42.810000             4.064382E-02  
42.830000             4.067048E-02  
42.850000             4.069714E-02  
42.870000             4.069942E-02  
42.890000             4.072609E-02  
42.910000             4.082592E-02  
42.930000             4.087699E-02  
42.950000             4.100123E-02  
42.970000             4.105231E-02  
42.990000             4.107901E-02  
43.010000             4.110570E-02  
43.030000             4.115680E-02  
43.050000             4.120790E-02  
43.070000             4.128341E-02  
43.090000             4.133452E-02  
43.110000             4.141004E-02  
43.130000             4.141236E-02  
43.150000             4.143909E-02  
43.170000             4.149022E-02  
43.190000             4.146814E-02  
43.210000             4.154369E-02  
43.230000             4.154602E-02  
43.250000             4.152394E-02  
43.270000             4.150185E-02  
43.290000             4.150418E-02  
43.310000             4.148209E-02  
43.330000             4.141117E-02  
43.350000             4.138907E-02  
43.370000             4.136697E-02  
43.390000             4.134487E-02  
43.410000             4.129834E-02  
43.430000             4.127624E-02  
43.450000             4.127855E-02  
43.470000             4.128087E-02  
43.490000             4.128318E-02  
43.510000             4.126107E-02  
43.530000             4.119009E-02  
43.550000             4.116797E-02  
43.570000             4.112141E-02  
43.590000             4.109929E-02  
43.610000             4.107716E-02  
43.630000             4.105502E-02  
43.650000             4.103289E-02  
43.670000             4.096187E-02  
43.690000             4.093973E-02  
43.710000             4.091758E-02  
43.730000             4.089544E-02  
43.750000             4.092218E-02  
43.770000             4.090003E-02  
43.790000             4.087787E-02  
43.810000             4.090462E-02  
43.830000             4.080911E-02  
43.850000             4.076250E-02  
43.870000             4.076479E-02  
43.890000             4.081599E-02  
43.910000             4.084274E-02  
43.930000             4.082057E-02  
43.950000             4.079840E-02  
43.970000             4.077624E-02  
43.990000             4.070514E-02  
44.010000             4.068296E-02  
44.030000             4.066078E-02  
44.050000             4.068753E-02  
44.070000             4.068982E-02  
44.090000             4.069211E-02  
44.110000             4.071886E-02  
44.130000             4.074562E-02  
44.150000             4.072344E-02  
44.170000             4.067678E-02  
44.190000             4.063011E-02  
44.210000             4.060792E-02  
44.230000             4.058572E-02  
44.250000             4.049009E-02  
44.270000             4.039444E-02  
44.290000             4.037222E-02  
44.310000             4.032553E-02  
44.330000             4.027882E-02  
44.350000             4.020763E-02  
44.370000             4.011193E-02  
44.390000             4.004072E-02  
44.410000             3.999399E-02  
44.430000             3.992276E-02  
44.450000             3.985152E-02  
44.470000             3.973129E-02  
44.490000             3.970903E-02  
44.510000             3.953978E-02  
44.530000             3.941950E-02  
44.550000             3.929922E-02  
44.570000             3.920342E-02  
44.590000             3.908311E-02  
44.610000             3.893828E-02  
44.630000             3.886695E-02  
44.650000             3.872209E-02  
44.670000             3.865074E-02  
44.690000             3.853037E-02  
44.710000             3.843449E-02  
44.730000             3.833860E-02  
44.750000             3.816916E-02  
44.770000             3.802421E-02  
44.790000             3.792828E-02  
44.810000             3.788138E-02  
44.830000             3.776091E-02  
44.850000             3.766495E-02  
44.870000             3.754446E-02  
44.890000             3.744848E-02  
44.910000             3.732796E-02  
44.930000             3.720743E-02  
44.950000             3.708688E-02  
44.970000             3.696632E-02  
44.990000             3.682122E-02  
45.010000             3.665156E-02  
45.030000             3.653096E-02  
45.050000             3.636127E-02  
45.070000             3.626517E-02  
45.090000             3.614452E-02  
45.110000             3.602386E-02  
45.130000             3.592773E-02  
45.150000             3.575796E-02  
45.170000             3.566180E-02  
45.190000             3.554109E-02  
45.210000             3.537127E-02  
45.230000             3.515233E-02  
45.250000             3.503157E-02  
45.270000             3.488624E-02  
45.290000             3.466724E-02  
45.310000             3.442366E-02  
45.330000             3.415550E-02  
45.350000             3.398553E-02  
45.370000             3.371732E-02  
45.390000             3.352275E-02  
45.410000             3.335272E-02  
45.430000             3.315811E-02  
45.450000             3.293891E-02  
45.470000             3.269513E-02  
45.490000             3.247588E-02  
45.510000             3.218291E-02  
45.530000             3.193904E-02  
45.550000             3.169514E-02  
45.570000             3.145122E-02  
45.590000             3.118269E-02  
45.610000             3.091414E-02  
45.630000             3.071928E-02  
45.650000             3.040151E-02  
45.670000             3.020660E-02  
45.690000             2.998709E-02  
45.710000             2.976756E-02  
45.730000             2.959716E-02  
45.750000             2.945133E-02  
45.770000             2.930548E-02  
45.790000             2.918420E-02  
45.810000             2.896456E-02  
45.830000             2.876948E-02  
45.850000             2.854979E-02  
45.870000             2.837926E-02  
45.890000             2.818411E-02  
45.910000             2.798894E-02  
45.930000             2.776916E-02  
45.950000             2.764774E-02  
45.970000             2.747711E-02  
45.990000             2.730646E-02  
46.010000             2.711119E-02  
46.030000             2.696510E-02  
46.050000             2.684360E-02  
46.070000             2.672209E-02  
46.090000             2.657595E-02  
46.110000             2.642980E-02  
46.130000             2.635746E-02  
46.150000             2.628512E-02  
46.170000             2.608970E-02  
46.190000             2.596810E-02  
46.210000             2.582188E-02  
46.230000             2.565102E-02  
46.250000             2.548014E-02  
46.270000             2.528462E-02  
46.290000             2.513832E-02  
46.310000             2.496738E-02  
46.330000             2.479643E-02  
46.350000             2.469933E-02  
46.370000             2.455296E-02  
46.390000             2.443121E-02  
46.410000             2.435870E-02  
46.430000             2.418767E-02  
46.450000             2.416440E-02  
46.470000             2.419040E-02  
46.490000             2.411786E-02  
46.510000             2.402068E-02  
46.530000             2.394813E-02  
46.550000             2.390020E-02  
46.570000             2.387692E-02  
46.590000             2.380434E-02  
46.610000             2.375640E-02  
46.630000             2.373310E-02  
46.650000             2.366050E-02  
46.670000             2.358790E-02  
46.690000             2.358923E-02  
46.710000             2.349197E-02  
46.730000             2.346865E-02  
46.750000             2.339601E-02  
46.770000             2.337268E-02  
46.790000             2.330004E-02  
46.810000             2.325204E-02  
46.830000             2.315472E-02  
46.850000             2.310671E-02  
46.870000             2.298471E-02  
46.890000             2.288736E-02  
46.910000             2.279000E-02  
46.930000             2.269263E-02  
46.950000             2.259525E-02  
46.970000             2.249785E-02  
46.990000             2.240045E-02  
47.010000             2.222901E-02  
47.030000             2.213158E-02  
47.050000             2.208349E-02  
47.070000             2.196136E-02  
47.090000             2.188857E-02  
47.110000             2.184046E-02  
47.130000             2.174297E-02  
47.150000             2.167016E-02  
47.170000             2.154798E-02  
47.190000             2.140110E-02  
47.210000             2.132825E-02  
47.230000             2.118134E-02  
47.250000             2.108379E-02  
47.270000             2.098622E-02  
47.290000             2.086396E-02  
47.310000             2.071699E-02  
47.330000             2.059469E-02  
47.350000             2.049708E-02  
47.370000             2.044885E-02  
47.390000             2.040061E-02  
47.410000             2.037707E-02  
47.430000             2.032882E-02  
47.450000             2.023117E-02  
47.470000             2.008409E-02  
47.490000             1.996171E-02  
47.510000             1.983931E-02  
47.530000             1.979102E-02  
47.550000             1.969330E-02  
47.570000             1.964500E-02  
47.590000             1.954727E-02  
47.610000             1.937538E-02  
47.630000             1.925291E-02  
47.650000             1.910570E-02  
47.670000             1.900791E-02  
47.690000             1.891012E-02  
47.710000             1.883703E-02  
47.730000             1.873921E-02  
47.750000             1.864138E-02  
47.770000             1.856826E-02  
47.790000             1.844569E-02  
47.810000             1.837255E-02  
47.830000             1.829941E-02  
47.850000             1.820153E-02  
47.870000             1.815310E-02  
47.890000             1.807993E-02  
47.910000             1.798202E-02  
47.930000             1.788410E-02  
47.950000             1.778616E-02  
47.970000             1.768822E-02  
47.990000             1.761500E-02  
48.010000             1.756652E-02  
48.030000             1.749329E-02  
48.050000             1.739531E-02  
48.070000             1.732206E-02  
48.090000             1.722405E-02  
48.110000             1.715078E-02  
48.130000             1.707751E-02  
48.150000             1.697947E-02  
48.170000             1.690618E-02  
48.190000             1.680813E-02  
48.210000             1.678433E-02  
48.230000             1.668625E-02  
48.250000             1.661292E-02  
48.270000             1.658911E-02  
48.290000             1.651577E-02  
48.310000             1.644242E-02  
48.330000             1.636906E-02  
48.350000             1.634523E-02  
48.370000             1.627186E-02  
48.390000             1.617371E-02  
48.410000             1.607555E-02  
48.430000             1.600215E-02  
48.450000             1.595352E-02  
48.470000             1.588010E-02  
48.490000             1.580668E-02  
48.510000             1.573325E-02  
48.530000             1.568459E-02  
48.550000             1.563592E-02  
48.570000             1.558725E-02  
48.590000             1.553857E-02  
48.610000             1.548989E-02  
48.630000             1.549077E-02  
48.650000             1.549165E-02  
48.670000             1.546774E-02  
48.690000             1.544384E-02  
48.710000             1.539513E-02  
48.730000             1.537122E-02  
48.750000             1.532250E-02  
48.770000             1.527379E-02  
48.790000             1.520027E-02  
48.810000             1.515154E-02  
48.830000             1.510280E-02  
48.850000             1.507886E-02  
48.870000             1.507972E-02  
48.890000             1.503097E-02  
48.910000             1.505663E-02  
48.930000             1.505749E-02  
48.950000             1.505835E-02  
48.970000             1.505921E-02  
48.990000             1.506006E-02  
49.010000             1.506092E-02  
49.030000             1.506178E-02  
49.050000             1.503782E-02  
49.070000             1.506350E-02  
49.090000             1.508917E-02  
49.110000             1.509003E-02  
49.130000             1.509089E-02  
49.150000             1.514140E-02  
49.170000             1.516708E-02  
49.190000             1.524242E-02  
49.210000             1.531777E-02  
49.230000             1.541795E-02  
49.250000             1.546849E-02  
49.270000             1.549420E-02  
49.290000             1.561925E-02  
49.310000             1.564497E-02  
49.330000             1.572037E-02  
49.350000             1.574610E-02  
49.370000             1.582151E-02  
49.390000             1.589693E-02  
49.410000             1.597236E-02  
49.430000             1.604779E-02  
49.450000             1.617292E-02  
49.470000             1.624838E-02  
49.490000             1.629900E-02  
49.510000             1.634963E-02  
49.530000             1.640026E-02  
49.550000             1.647574E-02  
49.570000             1.650153E-02  
49.590000             1.660189E-02  
49.610000             1.670225E-02  
49.630000             1.677778E-02  
49.650000             1.682845E-02  
49.670000             1.685427E-02  
49.690000             1.695467E-02  
49.710000             1.700536E-02  
49.730000             1.710579E-02  
49.750000             1.720622E-02  
49.770000             1.730667E-02  
49.790000             1.740712E-02  
49.810000             1.748272E-02  
49.830000             1.755833E-02  
49.850000             1.758421E-02  
49.870000             1.765983E-02  
49.890000             1.773546E-02  
49.910000             1.781110E-02  
49.930000             1.786188E-02  
49.950000             1.793753E-02  
49.970000             1.806296E-02  
49.990000             1.811375E-02  
50.010000             1.816455E-02  
50.030000             1.821536E-02  
50.050000             1.824129E-02  
50.070000             1.826722E-02  
50.090000             1.834293E-02  
50.110000             1.841864E-02  
50.130000             1.849437E-02  
50.150000             1.847054E-02  
50.170000             1.849649E-02  
50.190000             1.852244E-02  
50.210000             1.854840E-02  
50.230000             1.859925E-02  
50.250000             1.860032E-02  
50.270000             1.862628E-02  
50.290000             1.865225E-02  
50.310000             1.870313E-02  
50.330000             1.872910E-02  
50.350000             1.877999E-02  
50.370000             1.878106E-02  
50.390000             1.878213E-02  
50.410000             1.880812E-02  
50.430000             1.880920E-02  
50.450000             1.883519E-02  
50.470000             1.886118E-02  
50.490000             1.893701E-02  
50.510000             1.898793E-02  
50.530000             1.898902E-02  
50.550000             1.906487E-02  
50.570000             1.911581E-02  
50.590000             1.916675E-02  
50.610000             1.926755E-02  
50.630000             1.931851E-02  
50.650000             1.936947E-02  
50.670000             1.944537E-02  
50.690000             1.947141E-02  
50.710000             1.949746E-02  
50.730000             1.952351E-02  
50.750000             1.957450E-02  
50.770000             1.962549E-02  
50.790000             1.962662E-02  
50.810000             1.967762E-02  
50.830000             1.975357E-02  
50.850000             1.980459E-02  
50.870000             1.988056E-02  
50.890000             1.993159E-02  
50.910000             1.998262E-02  
50.930000             1.998377E-02  
50.950000             2.005976E-02  
50.970000             2.011082E-02  
50.990000             2.016187E-02  
51.010000             2.018798E-02  
51.030000             2.023905E-02  
51.050000             2.024021E-02  
51.070000             2.026633E-02  
51.090000             2.031741E-02  
51.110000             2.036850E-02  
51.130000             2.041959E-02  
51.150000             2.044573E-02  
51.170000             2.049683E-02  
51.190000             2.049801E-02  
51.210000             2.049918E-02  
51.230000             2.050036E-02  
51.250000             2.050153E-02  
51.270000             2.052768E-02  
51.290000             2.052886E-02  
51.310000             2.050506E-02  
51.330000             2.050623E-02  
51.350000             2.050741E-02  
51.370000             2.053357E-02  
51.390000             2.055973E-02  
51.410000             2.061087E-02  
51.430000             2.056209E-02  
51.450000             2.051329E-02  
51.470000             2.046450E-02  
51.490000             2.044068E-02  
51.510000             2.044186E-02  
51.530000             2.041804E-02  
51.550000             2.036922E-02  
51.570000             2.034540E-02  
51.590000             2.029657E-02  
51.610000             2.027274E-02  
51.630000             2.027391E-02  
51.650000             2.027507E-02  
51.670000             2.027623E-02  
51.690000             2.030240E-02  
51.710000             2.037858E-02  
51.730000             2.040476E-02  
51.750000             2.040593E-02  
51.770000             2.040710E-02  
51.790000             2.040827E-02  
51.810000             2.045947E-02  
51.830000             2.048565E-02  
51.850000             2.043680E-02  
51.870000             2.043798E-02  
51.890000             2.043915E-02  
51.910000             2.041531E-02  
51.930000             2.031640E-02  
51.950000             2.026752E-02  
51.970000             2.021864E-02  
51.990000             2.019478E-02  
52.010000             2.017091E-02  
52.030000             2.014704E-02  
52.050000             2.009815E-02  
52.070000             2.004924E-02  
52.090000             2.002536E-02  
52.110000             1.997645E-02  
52.130000             1.992752E-02  
52.150000             1.985356E-02  
52.170000             1.977959E-02  
52.190000             1.968057E-02  
52.210000             1.958154E-02  
52.230000             1.945746E-02  
52.250000             1.938345E-02  
52.270000             1.933448E-02  
52.290000             1.921036E-02  
52.310000             1.911127E-02  
52.330000             1.898713E-02  
52.350000             1.883792E-02  
52.370000             1.871374E-02  
52.390000             1.858955E-02  
52.410000             1.851546E-02  
52.430000             1.836618E-02  
52.450000             1.826701E-02  
52.470000             1.811771E-02  
52.490000             1.799345E-02  
52.510000             1.786917E-02  
52.530000             1.776995E-02  
52.550000             1.767071E-02  
52.570000             1.754640E-02  
52.590000             1.742207E-02  
52.610000             1.729773E-02  
52.630000             1.717337E-02  
52.650000             1.704900E-02  
52.670000             1.699983E-02  
52.690000             1.692559E-02  
52.710000             1.687641E-02  
52.730000             1.680215E-02  
52.750000             1.672788E-02  
52.770000             1.660343E-02  
52.790000             1.650406E-02  
52.810000             1.640468E-02  
52.830000             1.630528E-02  
52.850000             1.620588E-02  
52.870000             1.613155E-02  
52.890000             1.605721E-02  
52.910000             1.600795E-02  
52.930000             1.593360E-02  
52.950000             1.583414E-02  
52.970000             1.578486E-02  
52.990000             1.573558E-02  
53.010000             1.568629E-02  
53.030000             1.563699E-02  
53.050000             1.556259E-02  
53.070000             1.546308E-02  
53.090000             1.536356E-02  
53.110000             1.531423E-02  
53.130000             1.521469E-02  
53.150000             1.509002E-02  
53.170000             1.499046E-02  
53.190000             1.491599E-02  
53.210000             1.479128E-02  
53.230000             1.471680E-02  
53.250000             1.464230E-02  
53.270000             1.456779E-02  
53.290000             1.449328E-02  
53.310000             1.444387E-02  
53.330000             1.436934E-02  
53.350000             1.429480E-02  
53.370000             1.422026E-02  
53.390000             1.412057E-02  
53.410000             1.404601E-02  
53.430000             1.402169E-02  
53.450000             1.394711E-02  
53.470000             1.387252E-02  
53.490000             1.382305E-02  
53.510000             1.374845E-02  
53.530000             1.367384E-02  
53.550000             1.359921E-02  
53.570000             1.354972E-02  
53.590000             1.347508E-02  
53.610000             1.345072E-02  
53.630000             1.342635E-02  
53.650000             1.335170E-02  
53.670000             1.335247E-02  
53.690000             1.327780E-02  
53.710000             1.327856E-02  
53.730000             1.327933E-02  
53.750000             1.330525E-02  
53.770000             1.330602E-02  
53.790000             1.328163E-02  
53.810000             1.330755E-02  
53.830000             1.328317E-02  
53.850000             1.325877E-02  
53.870000             1.325954E-02  
53.890000             1.328547E-02  
53.910000             1.328624E-02  
53.930000             1.326184E-02  
53.950000             1.326260E-02  
53.970000             1.328854E-02  
53.990000             1.328931E-02  
54.010000             1.329008E-02  
54.030000             1.329084E-02  
54.050000             1.329161E-02  
54.070000             1.329238E-02  
54.090000             1.329315E-02  
54.110000             1.329392E-02  
54.130000             1.329469E-02  
54.150000             1.329545E-02  
54.170000             1.329622E-02  
54.190000             1.329699E-02  
54.210000             1.327258E-02  
54.230000             1.324816E-02  
54.250000             1.322374E-02  
54.270000             1.314893E-02  
54.290000             1.312450E-02  
54.310000             1.307488E-02  
54.330000             1.305044E-02  
54.350000             1.305119E-02  
54.370000             1.302675E-02  
54.390000             1.300231E-02  
54.410000             1.297786E-02  
54.430000             1.292821E-02  
54.450000             1.287855E-02  
54.470000             1.282889E-02  
54.490000             1.280443E-02  
54.510000             1.275475E-02  
54.530000             1.265466E-02  
54.550000             1.263018E-02  
54.570000             1.255528E-02  
54.590000             1.253079E-02  
54.610000             1.248109E-02  
54.630000             1.243138E-02  
54.650000             1.238166E-02  
54.670000             1.233194E-02  
54.690000             1.228222E-02  
54.710000             1.220726E-02  
54.730000             1.218275E-02  
54.750000             1.210778E-02  
54.770000             1.208326E-02  
54.790000             1.205873E-02  
54.810000             1.200897E-02  
54.830000             1.195920E-02  
54.850000             1.190943E-02  
54.870000             1.191012E-02  
54.890000             1.188558E-02  
54.910000             1.186103E-02  
54.930000             1.188696E-02  
54.950000             1.191288E-02  
54.970000             1.193882E-02  
54.990000             1.198999E-02  
55.010000             1.201593E-02  
55.030000             1.204187E-02  
55.050000             1.206782E-02  
55.070000             1.206852E-02  
55.090000             1.209447E-02  
55.110000             1.212042E-02  
55.130000             1.217162E-02  
55.150000             1.222284E-02  
55.170000             1.227406E-02  
55.190000             1.232528E-02  
55.210000             1.237651E-02  
55.230000             1.245301E-02  
55.250000             1.250426E-02  
55.270000             1.255551E-02  
55.290000             1.260676E-02  
55.310000             1.265803E-02  
55.330000             1.273456E-02  
55.350000             1.278584E-02  
55.370000             1.283712E-02  
55.390000             1.288841E-02  
55.410000             1.293970E-02  
55.430000             1.299100E-02  
55.450000             1.304230E-02  
55.470000             1.311889E-02  
55.490000             1.317021E-02  
55.510000             1.327210E-02  
55.530000             1.337400E-02  
55.550000             1.347590E-02  
55.570000             1.357782E-02  
55.590000             1.367976E-02  
55.610000             1.378170E-02  
55.630000             1.388366E-02  
55.650000             1.398563E-02  
55.670000             1.406231E-02  
55.690000             1.416430E-02  
55.710000             1.426631E-02  
55.730000             1.436832E-02  
55.750000             1.447035E-02  
55.770000             1.454709E-02  
55.790000             1.467443E-02  
55.810000             1.480180E-02  
55.830000             1.492918E-02  
55.850000             1.503126E-02  
55.870000             1.515867E-02  
55.890000             1.528609E-02  
55.910000             1.538822E-02  
55.930000             1.554098E-02  
55.950000             1.564313E-02  
55.970000             1.577061E-02  
55.990000             1.587279E-02  
56.010000             1.600030E-02  
56.030000             1.612782E-02  
56.050000             1.620472E-02  
56.070000             1.635759E-02  
56.090000             1.645983E-02  
56.110000             1.653676E-02  
56.130000             1.663903E-02  
56.150000             1.676663E-02  
56.170000             1.684359E-02  
56.190000             1.697122E-02  
56.210000             1.707354E-02  
56.230000             1.717586E-02  
56.250000             1.727820E-02  
56.270000             1.740589E-02  
56.290000             1.753359E-02  
56.310000             1.763596E-02  
56.330000             1.776369E-02  
56.350000             1.786609E-02  
56.370000             1.796851E-02  
56.390000             1.807093E-02  
56.410000             1.817337E-02  
56.430000             1.827582E-02  
56.450000             1.840363E-02  
56.470000             1.853145E-02  
56.490000             1.860859E-02  
56.510000             1.873644E-02  
56.530000             1.883895E-02  
56.550000             1.891612E-02  
56.570000             1.899330E-02  
56.590000             1.904512E-02  
56.610000             1.909695E-02  
56.630000             1.917415E-02  
56.650000             1.927673E-02  
56.670000             1.935395E-02  
56.690000             1.938044E-02  
56.710000             1.945768E-02  
56.730000             1.953492E-02  
56.750000             1.958680E-02  
56.770000             1.966406E-02  
56.790000             1.976670E-02  
56.810000             1.984398E-02  
56.830000             1.992127E-02  
56.850000             1.999857E-02  
56.870000             2.007588E-02  
56.890000             2.010243E-02  
56.910000             2.015437E-02  
56.930000             2.018093E-02  
56.950000             2.023288E-02  
56.970000             2.028483E-02  
56.990000             2.033679E-02  
57.010000             2.038876E-02  
57.030000             2.044073E-02  
57.050000             2.049271E-02  
57.070000             2.054470E-02  
57.090000             2.059669E-02  
57.110000             2.064869E-02  
57.130000             2.070069E-02  
57.150000             2.075270E-02  
57.170000             2.077931E-02  
57.190000             2.080593E-02  
57.210000             2.083255E-02  
57.230000             2.090999E-02  
57.250000             2.101284E-02  
57.270000             2.103948E-02  
57.290000             2.116776E-02  
57.310000             2.121982E-02  
57.330000             2.124648E-02  
57.350000             2.134938E-02  
57.370000             2.137604E-02  
57.390000             2.145355E-02  
57.410000             2.153106E-02  
57.430000             2.160858E-02  
57.450000             2.168611E-02  
57.470000             2.176365E-02  
57.490000             2.184120E-02  
57.510000             2.196962E-02  
57.530000             2.209805E-02  
57.550000             2.225192E-02  
57.570000             2.232952E-02  
57.590000             2.245799E-02  
57.610000             2.253561E-02  
57.630000             2.263867E-02  
57.650000             2.271631E-02  
57.670000             2.279396E-02  
57.690000             2.284617E-02  
57.710000             2.289839E-02  
57.730000             2.295062E-02  
57.750000             2.300285E-02  
57.770000             2.305509E-02  
57.790000             2.313278E-02  
57.810000             2.321048E-02  
57.830000             2.328819E-02  
57.850000             2.336591E-02  
57.870000             2.349455E-02  
57.890000             2.359775E-02  
57.910000             2.365004E-02  
57.930000             2.377872E-02  
57.950000             2.385649E-02  
57.970000             2.393428E-02  
57.990000             2.398660E-02  
58.010000             2.406440E-02  
58.030000             2.411674E-02  
58.050000             2.416909E-02  
58.070000             2.419597E-02  
58.090000             2.427380E-02  
58.110000             2.430069E-02  
58.130000             2.435306E-02  
58.150000             2.435448E-02  
58.170000             2.440686E-02  
58.190000             2.445925E-02  
58.210000             2.448616E-02  
58.230000             2.451307E-02  
58.250000             2.448902E-02  
58.270000             2.451594E-02  
58.290000             2.456835E-02  
58.310000             2.462076E-02  
58.330000             2.467318E-02  
58.350000             2.475109E-02  
58.370000             2.477803E-02  
58.390000             2.483047E-02  
58.410000             2.480643E-02  
58.430000             2.480788E-02  
58.450000             2.486033E-02  
58.470000             2.483629E-02  
58.490000             2.486324E-02  
58.510000             2.496671E-02  
58.530000             2.494267E-02  
58.550000             2.499514E-02  
58.570000             2.504761E-02  
58.590000             2.507459E-02  
58.610000             2.515259E-02  
58.630000             2.520508E-02  
58.650000             2.528310E-02  
58.670000             2.538664E-02  
58.690000             2.541364E-02  
58.710000             2.546616E-02  
58.730000             2.551869E-02  
58.750000             2.557123E-02  
58.770000             2.562377E-02  
58.790000             2.572737E-02  
58.810000             2.580545E-02  
58.830000             2.585801E-02  
58.850000             2.585953E-02  
58.870000             2.588657E-02  
58.890000             2.591362E-02  
58.910000             2.591514E-02  
58.930000             2.596773E-02  
58.950000             2.602032E-02  
58.970000             2.604738E-02  
58.990000             2.612553E-02  
59.010000             2.617814E-02  
59.030000             2.623075E-02  
59.050000             2.625784E-02  
59.070000             2.623383E-02  
59.090000             2.623537E-02  
59.110000             2.623691E-02  
59.130000             2.623845E-02  
59.150000             2.621444E-02  
59.170000             2.613932E-02  
59.190000             2.606420E-02  
59.210000             2.601462E-02  
59.230000             2.609281E-02  
59.250000             2.614546E-02  
59.270000             2.612143E-02  
59.290000             2.617409E-02  
59.310000             2.622675E-02  
59.330000             2.627942E-02  
59.350000             2.635765E-02  
59.370000             2.643590E-02  
59.390000             2.653973E-02  
59.410000             2.669470E-02  
59.430000             2.684970E-02  
59.450000             2.695356E-02  
59.470000             2.708302E-02  
59.490000             2.716133E-02  
59.510000             2.729082E-02  
59.530000             2.736915E-02  
59.550000             2.752424E-02  
59.570000             2.770493E-02  
59.590000             2.788564E-02  
59.610000             2.798962E-02  
59.630000             2.814478E-02  
59.650000             2.827437E-02  
59.670000             2.837839E-02  
59.690000             2.850801E-02  
59.710000             2.861205E-02  
59.730000             2.874170E-02  
59.750000             2.887137E-02  
59.770000             2.889866E-02  
59.790000             2.892596E-02  
59.810000             2.892766E-02  
59.830000             2.898056E-02  
59.850000             2.903347E-02  
59.870000             2.908639E-02  
59.890000             2.913931E-02  
59.910000             2.916663E-02  
59.930000             2.924517E-02  
59.950000             2.932372E-02  
59.970000             2.932545E-02  
59.990000             2.935279E-02  
60.010000             2.943136E-02  
60.030000             2.948432E-02  
60.050000             2.948605E-02  
60.070000             2.951341E-02  
60.090000             2.954077E-02  
60.110000             2.949126E-02  
60.130000             2.951862E-02  
60.150000             2.944348E-02  
60.170000             2.944521E-02  
60.190000             2.944695E-02  
60.210000             2.942305E-02  
60.230000             2.945041E-02  
60.250000             2.945215E-02  
60.270000             2.945388E-02  
60.290000             2.942998E-02  
60.310000             2.938043E-02  
60.330000             2.935653E-02  
60.350000             2.933261E-02  
60.370000             2.933434E-02  
60.390000             2.933607E-02  
60.410000             2.936344E-02  
60.430000             2.936517E-02  
60.450000             2.936690E-02  
60.470000             2.939428E-02  
60.490000             2.942166E-02  
60.510000             2.950035E-02  
60.530000             2.955340E-02  
60.550000             2.952948E-02  
60.570000             2.955688E-02  
60.590000             2.955862E-02  
60.610000             2.956036E-02  
60.630000             2.958777E-02  
60.650000             2.951252E-02  
60.670000             2.943727E-02  
60.690000             2.941334E-02  
60.710000             2.941507E-02  
60.730000             2.939113E-02  
60.750000             2.934153E-02  
60.770000             2.931758E-02  
60.790000             2.926796E-02  
60.810000             2.924401E-02  
60.830000             2.919439E-02  
60.850000             2.917043E-02  
60.870000             2.914647E-02  
60.890000             2.914819E-02  
60.910000             2.914991E-02  
60.930000             2.910026E-02  
60.950000             2.907629E-02  
60.970000             2.902663E-02  
60.990000             2.892559E-02  
61.010000             2.882453E-02  
61.030000             2.869777E-02  
61.050000             2.864808E-02  
61.070000             2.857268E-02  
61.090000             2.847159E-02  
61.110000             2.837047E-02  
61.130000             2.824365E-02  
61.150000             2.816822E-02  
61.170000             2.809277E-02  
61.190000             2.796591E-02  
61.210000             2.789044E-02  
61.230000             2.781497E-02  
61.250000             2.771378E-02  
61.270000             2.756115E-02  
61.290000             2.745993E-02  
61.310000             2.733299E-02  
61.330000             2.720603E-02  
61.350000             2.707906E-02  
61.370000             2.692635E-02  
61.390000             2.679934E-02  
61.410000             2.664660E-02  
61.430000             2.649384E-02  
61.450000             2.636679E-02  
61.470000             2.623972E-02  
61.490000             2.616409E-02  
61.510000             2.606273E-02  
61.530000             2.596135E-02  
61.550000             2.588569E-02  
61.570000             2.578428E-02  
61.590000             2.565714E-02  
61.610000             2.552997E-02  
61.630000             2.542853E-02  
61.650000             2.530134E-02  
61.670000             2.514839E-02  
61.690000             2.499543E-02  
61.710000             2.489393E-02  
61.730000             2.484391E-02  
61.750000             2.474240E-02  
61.770000             2.469236E-02  
61.790000             2.464233E-02  
61.810000             2.456653E-02  
61.830000             2.451648E-02  
61.850000             2.436340E-02  
61.870000             2.428758E-02  
61.890000             2.423750E-02  
61.910000             2.416166E-02  
61.930000             2.408580E-02  
61.950000             2.400994E-02  
61.970000             2.395984E-02  
61.990000             2.385820E-02  
62.010000             2.380808E-02  
62.030000             2.375795E-02  
62.050000             2.365628E-02  
62.070000             2.360614E-02  
62.090000             2.353021E-02  
62.110000             2.337696E-02  
62.130000             2.324947E-02  
62.150000             2.312196E-02  
62.170000             2.302022E-02  
62.190000             2.286690E-02  
62.210000             2.279091E-02  
62.230000             2.263756E-02  
62.250000             2.248419E-02  
62.270000             2.233081E-02  
62.290000             2.217740E-02  
62.310000             2.202398E-02  
62.330000             2.187054E-02  
62.350000             2.174287E-02  
62.370000             2.161519E-02  
62.390000             2.151329E-02  
62.410000             2.143718E-02  
62.430000             2.133525E-02  
62.450000             2.123332E-02  
62.470000             2.113137E-02  
62.490000             2.102941E-02  
62.510000             2.092744E-02  
62.530000             2.082545E-02  
62.550000             2.077507E-02  
62.570000             2.069888E-02  
62.590000             2.064848E-02  
62.610000             2.057227E-02  
62.630000             2.052186E-02  
62.650000             2.047145E-02  
62.670000             2.039521E-02  
62.690000             2.034478E-02  
62.710000             2.032017E-02  
62.730000             2.032138E-02  
62.750000             2.029676E-02  
62.770000             2.027214E-02  
62.790000             2.027334E-02  
62.810000             2.024871E-02  
62.830000             2.024992E-02  
62.850000             2.025112E-02  
62.870000             2.025232E-02  
62.890000             2.020185E-02  
62.910000             2.015138E-02  
62.930000             2.012674E-02  
62.950000             2.010210E-02  
62.970000             2.005161E-02  
62.990000             2.000112E-02  
63.010000             1.997646E-02  
63.030000             1.995180E-02  
63.050000             1.992714E-02  
63.070000             1.990248E-02  
63.090000             1.982611E-02  
63.110000             1.977559E-02  
63.130000             1.980261E-02  
63.150000             1.977793E-02  
63.170000             1.970154E-02  
63.190000             1.972857E-02  
63.210000             1.970388E-02  
63.230000             1.970505E-02  
63.250000             1.965450E-02  
63.270000             1.965567E-02  
63.290000             1.970856E-02  
63.310000             1.970973E-02  
63.330000             1.968504E-02  
63.350000             1.971208E-02  
63.370000             1.976499E-02  
63.390000             1.976616E-02  
63.410000             1.974146E-02  
63.430000             1.984614E-02  
63.450000             1.987319E-02  
63.470000             1.984849E-02  
63.490000             1.984967E-02  
63.510000             1.985085E-02  
63.530000             1.985203E-02  
63.550000             1.987910E-02  
63.570000             1.990617E-02  
63.590000             1.993324E-02  
63.610000             1.996031E-02  
63.630000             1.996150E-02  
63.650000             1.998858E-02  
63.670000             2.001566E-02  
63.690000             2.004274E-02  
63.710000             2.006983E-02  
63.730000             2.007102E-02  
63.750000             2.009812E-02  
63.770000             2.009931E-02  
63.790000             2.015231E-02  
63.810000             2.015351E-02  
63.830000             2.015471E-02  
63.850000             2.013000E-02  
63.870000             2.013120E-02  
63.890000             2.010649E-02  
63.910000             2.010769E-02  
63.930000             2.010888E-02  
63.950000             2.008416E-02  
63.970000             2.008536E-02  
63.990000             2.003472E-02  
64.010000             2.000999E-02  
64.030000             2.003710E-02  
64.050000             2.001237E-02  
64.070000             2.003949E-02  
64.090000             2.006661E-02  
64.110000             2.006780E-02  
64.130000             2.004307E-02  
64.150000             2.007019E-02  
64.170000             2.007139E-02  
64.190000             2.007258E-02  
64.210000             2.002191E-02  
64.230000             1.994529E-02  
64.250000             1.997242E-02  
64.270000             1.997361E-02  
64.290000             1.989697E-02  
64.310000             1.976844E-02  
64.330000             1.971773E-02  
64.350000             1.971891E-02  
64.370000             1.964224E-02  
64.390000             1.961746E-02  
64.410000             1.961863E-02  
64.430000             1.961980E-02  
64.450000             1.959501E-02  
64.470000             1.957023E-02  
64.490000             1.949352E-02  
64.510000             1.944277E-02  
64.530000             1.934009E-02  
64.550000             1.923740E-02  
64.570000             1.918662E-02  
64.590000             1.910987E-02  
64.610000             1.898118E-02  
64.630000             1.887844E-02  
64.650000             1.882763E-02  
64.670000             1.875084E-02  
64.690000             1.859612E-02  
64.710000             1.849334E-02  
64.730000             1.836456E-02  
64.750000             1.828773E-02  
64.770000             1.821088E-02  
64.790000             1.810805E-02  
64.810000             1.803118E-02  
64.830000             1.792833E-02  
64.850000             1.782546E-02  
64.870000             1.769659E-02  
64.890000             1.761969E-02  
64.910000             1.756876E-02  
64.930000             1.751783E-02  
64.950000             1.746689E-02  
64.970000             1.741594E-02  
64.990000             1.733899E-02  
65.010000             1.726204E-02  
65.030000             1.721107E-02  
65.050000             1.710810E-02  
65.070000             1.705712E-02  
65.090000             1.700613E-02  
65.110000             1.692913E-02  
65.130000             1.682611E-02  
65.150000             1.674910E-02  
65.170000             1.672409E-02  
65.190000             1.662104E-02  
65.210000             1.649197E-02  
65.230000             1.638890E-02  
65.250000             1.633785E-02  
65.270000             1.623476E-02  
65.290000             1.618369E-02  
65.310000             1.615863E-02  
65.330000             1.610756E-02  
65.350000             1.600442E-02  
65.370000             1.595333E-02  
65.390000             1.592826E-02  
65.410000             1.595524E-02  
65.430000             1.595619E-02  
65.450000             1.593111E-02  
65.470000             1.595810E-02  
65.490000             1.601112E-02  
65.510000             1.596001E-02  
65.530000             1.598700E-02  
65.550000             1.604003E-02  
65.570000             1.606703E-02  
65.590000             1.609404E-02  
65.610000             1.609500E-02  
65.630000             1.614805E-02  
65.650000             1.620111E-02  
65.670000             1.622813E-02  
65.690000             1.625515E-02  
65.710000             1.630822E-02  
65.730000             1.625709E-02  
65.750000             1.623201E-02  
65.770000             1.623298E-02  
65.790000             1.623396E-02  
65.810000             1.620887E-02  
65.830000             1.620984E-02  
65.850000             1.621081E-02  
65.870000             1.623784E-02  
65.890000             1.621275E-02  
65.910000             1.618765E-02  
65.930000             1.616255E-02  
65.950000             1.613745E-02  
65.970000             1.613842E-02  
65.990000             1.611331E-02  
66.010000             1.608820E-02  
66.030000             1.606309E-02  
66.050000             1.603797E-02  
66.070000             1.598677E-02  
66.090000             1.596165E-02  
66.110000             1.593652E-02  
66.130000             1.593747E-02  
66.150000             1.591234E-02  
66.170000             1.586112E-02  
66.190000             1.580989E-02  
66.210000             1.578475E-02  
66.230000             1.581179E-02  
66.250000             1.578664E-02  
66.270000             1.578759E-02  
66.290000             1.578853E-02  
66.310000             1.581558E-02  
66.330000             1.584263E-02  
66.350000             1.576527E-02  
66.370000             1.574011E-02  
66.390000             1.574106E-02  
66.410000             1.568979E-02  
66.430000             1.566462E-02  
66.450000             1.563945E-02  
66.470000             1.558817E-02  
66.490000             1.556299E-02  
66.510000             1.553781E-02  
66.530000             1.551263E-02  
66.550000             1.551356E-02  
66.570000             1.551449E-02  
66.590000             1.551542E-02  
66.610000             1.551635E-02  
66.630000             1.549116E-02  
66.650000             1.549208E-02  
66.670000             1.551914E-02  
66.690000             1.554620E-02  
66.710000             1.549487E-02  
66.730000             1.549580E-02  
66.750000             1.552287E-02  
66.770000             1.554993E-02  
66.790000             1.557700E-02  
66.810000             1.552566E-02  
66.830000             1.547431E-02  
66.850000             1.542296E-02  
66.870000             1.542389E-02  
66.890000             1.542481E-02  
66.910000             1.542574E-02  
66.930000             1.545281E-02  
66.950000             1.542759E-02  
66.970000             1.540237E-02  
66.990000             1.545560E-02  
67.010000             1.550883E-02  
67.030000             1.553592E-02  
67.050000             1.558916E-02  
67.070000             1.566857E-02  
67.090000             1.572183E-02  
67.110000             1.572278E-02  
67.130000             1.572372E-02  
67.150000             1.572467E-02  
67.170000             1.575178E-02  
67.190000             1.577889E-02  
67.210000             1.580601E-02  
67.230000             1.588547E-02  
67.250000             1.601729E-02  
67.270000             1.607060E-02  
67.290000             1.612391E-02  
67.310000             1.615106E-02  
67.330000             1.617821E-02  
67.350000             1.623154E-02  
67.370000             1.628488E-02  
67.390000             1.631204E-02  
67.410000             1.631302E-02  
67.430000             1.636637E-02  
67.450000             1.636736E-02  
67.470000             1.636834E-02  
67.490000             1.636933E-02  
67.510000             1.637031E-02  
67.530000             1.642369E-02  
67.550000             1.642467E-02  
67.570000             1.645186E-02  
67.590000             1.645285E-02  
67.610000             1.650624E-02  
67.630000             1.645483E-02  
67.650000             1.648202E-02  
67.670000             1.650922E-02  
67.690000             1.648401E-02  
67.710000             1.645879E-02  
67.730000             1.645978E-02  
67.750000             1.646077E-02  
67.770000             1.648797E-02  
67.790000             1.646275E-02  
67.810000             1.648996E-02  
67.830000             1.646473E-02  
67.850000             1.649195E-02  
67.870000             1.651916E-02  
67.890000             1.654638E-02  
67.910000             1.654737E-02  
67.930000             1.654837E-02  
67.950000             1.652314E-02  
67.970000             1.652413E-02  
67.990000             1.649890E-02  
68.010000             1.649989E-02  
68.030000             1.652712E-02  
68.050000             1.647565E-02  
68.070000             1.647664E-02  
68.090000             1.647763E-02  
68.110000             1.645238E-02  
68.130000             1.642713E-02  
68.150000             1.640188E-02  
68.170000             1.637662E-02  
68.190000             1.635137E-02  
68.210000             1.632610E-02  
68.230000             1.630084E-02  
68.250000             1.630182E-02  
68.270000             1.622405E-02  
68.290000             1.622502E-02  
68.310000             1.619975E-02  
68.330000             1.614821E-02  
68.350000             1.609666E-02  
68.370000             1.604511E-02  
68.390000             1.601982E-02  
68.410000             1.594200E-02  
68.430000             1.586416E-02  
68.450000             1.578632E-02  
68.470000             1.573473E-02  
68.490000             1.563060E-02  
68.510000             1.552646E-02  
68.530000             1.542230E-02  
68.550000             1.534441E-02  
68.570000             1.524023E-02  
68.590000             1.518860E-02  
68.610000             1.513695E-02  
68.630000             1.505902E-02  
68.650000             1.503365E-02  
68.670000             1.500827E-02  
68.690000             1.498289E-02  
68.710000             1.487865E-02  
68.730000             1.487955E-02  
68.750000             1.480157E-02  
68.770000             1.480247E-02  
68.790000             1.477707E-02  
68.810000             1.480426E-02  
68.830000             1.475256E-02  
68.850000             1.475345E-02  
68.870000             1.480694E-02  
68.890000             1.480783E-02  
68.910000             1.475612E-02  
68.930000             1.473071E-02  
68.950000             1.478421E-02  
68.970000             1.478510E-02  
68.990000             1.478600E-02  
69.010000             1.481320E-02  
69.030000             1.484041E-02  
69.050000             1.484130E-02  
69.070000             1.484220E-02  
69.090000             1.484310E-02  
69.110000             1.479136E-02  
69.130000             1.479225E-02  
69.150000             1.479315E-02  
69.170000             1.479404E-02  
69.190000             1.479493E-02  
69.210000             1.474317E-02  
69.230000             1.469141E-02  
69.250000             1.463964E-02  
69.270000             1.458786E-02  
69.290000             1.456241E-02  
69.310000             1.458962E-02  
69.330000             1.456417E-02  
69.350000             1.456505E-02  
69.370000             1.456593E-02  
69.390000             1.461949E-02  
69.410000             1.462038E-02  
69.430000             1.464761E-02  
69.450000             1.467484E-02  
69.470000             1.470207E-02  
69.490000             1.475566E-02  
69.510000             1.483561E-02  
69.530000             1.483651E-02  
69.550000             1.486376E-02  
69.570000             1.486466E-02  
69.590000             1.491827E-02  
69.610000             1.491918E-02  
69.630000             1.494644E-02  
69.650000             1.500007E-02  
69.670000             1.497461E-02  
69.690000             1.500188E-02  
69.710000             1.502916E-02  
69.730000             1.503007E-02  
69.750000             1.503098E-02  
69.770000             1.505826E-02  
69.790000             1.505917E-02  
69.810000             1.511284E-02  
69.830000             1.516650E-02  
69.850000             1.519380E-02  
69.870000             1.516834E-02  
69.890000             1.514288E-02  
69.910000             1.514380E-02  
69.930000             1.517110E-02  
69.950000             1.517202E-02  
69.970000             1.519933E-02  
69.990000             1.517386E-02  
70.010000             1.517478E-02  
70.030000             1.520209E-02  
70.050000             1.520301E-02  
70.070000             1.520393E-02  
70.090000             1.525765E-02  
70.110000             1.533777E-02  
70.130000             1.533870E-02  
70.150000             1.536603E-02  
70.170000             1.544617E-02  
70.190000             1.552633E-02  
70.210000             1.555368E-02  
70.230000             1.558103E-02  
70.250000             1.560838E-02  
70.270000             1.566215E-02  
70.290000             1.571593E-02  
70.310000             1.576971E-02  
70.330000             1.582350E-02  
70.350000             1.585088E-02  
70.370000             1.587826E-02  
70.390000             1.590565E-02  
70.410000             1.595946E-02  
70.430000             1.601327E-02  
70.450000             1.606710E-02  
70.470000             1.612093E-02  
70.490000             1.620120E-02  
70.510000             1.625504E-02  
70.530000             1.628246E-02  
70.550000             1.630988E-02  
70.570000             1.633731E-02  
70.590000             1.633830E-02  
70.610000             1.633929E-02  
70.630000             1.634028E-02  
70.650000             1.631483E-02  
70.670000             1.634227E-02  
70.690000             1.631682E-02  
70.710000             1.629136E-02  
70.730000             1.629235E-02  
70.750000             1.629334E-02  
70.770000             1.629433E-02  
70.790000             1.629532E-02  
70.810000             1.629631E-02  
70.830000             1.629730E-02  
70.850000             1.629829E-02  
70.870000             1.627282E-02  
70.890000             1.627381E-02  
70.910000             1.630126E-02  
70.930000             1.630225E-02  
70.950000             1.627677E-02  
70.970000             1.633070E-02  
70.990000             1.635816E-02  
71.010000             1.635916E-02  
71.030000             1.636015E-02  
71.050000             1.636115E-02  
71.070000             1.630919E-02  
71.090000             1.631018E-02  
71.110000             1.628469E-02  
71.130000             1.625920E-02  
71.150000             1.626019E-02  
71.170000             1.623470E-02  
71.190000             1.623568E-02  
71.210000             1.623667E-02  
71.230000             1.621117E-02  
71.250000             1.621215E-02  
71.270000             1.618665E-02  
71.290000             1.629361E-02  
71.310000             1.626810E-02  
71.330000             1.618960E-02  
71.350000             1.616409E-02  
71.370000             1.608557E-02  
71.390000             1.603355E-02  
71.410000             1.600802E-02  
71.430000             1.598249E-02  
71.450000             1.595696E-02  
71.470000             1.587840E-02  
71.490000             1.593239E-02  
71.510000             1.593336E-02  
71.530000             1.596084E-02  
71.550000             1.596182E-02  
71.570000             1.601582E-02  
71.590000             1.601679E-02  
71.610000             1.599125E-02  
71.630000             1.601875E-02  
71.650000             1.604624E-02  
71.670000             1.604722E-02  
71.690000             1.602167E-02  
71.710000             1.607570E-02  
71.730000             1.607668E-02  
71.750000             1.605113E-02  
71.770000             1.610517E-02  
71.790000             1.613269E-02  
71.810000             1.613367E-02  
71.830000             1.613466E-02  
71.850000             1.618872E-02  
71.870000             1.618970E-02  
71.890000             1.619069E-02  
71.910000             1.616513E-02  
71.930000             1.621921E-02  
71.950000             1.622020E-02  
71.970000             1.622119E-02  
71.990000             1.624873E-02  
72.010000             1.624972E-02  
72.030000             1.627726E-02  
72.050000             1.622514E-02  
72.070000             1.625269E-02  
72.090000             1.622712E-02  
72.110000             1.620155E-02  
72.130000             1.625566E-02  
72.150000             1.625666E-02  
72.170000             1.625765E-02  
72.190000             1.631177E-02  
72.210000             1.636590E-02  
72.230000             1.642004E-02  
72.250000             1.644761E-02  
72.270000             1.650176E-02  
72.290000             1.652935E-02  
72.310000             1.655693E-02  
72.330000             1.658452E-02  
72.350000             1.661211E-02  
72.370000             1.663970E-02  
72.390000             1.666730E-02  
72.410000             1.669491E-02  
72.430000             1.674910E-02  
72.450000             1.677671E-02  
72.470000             1.677773E-02  
72.490000             1.680535E-02  
72.510000             1.685956E-02  
72.530000             1.694037E-02  
72.550000             1.702119E-02  
72.570000             1.707542E-02  
72.590000             1.715626E-02  
72.610000             1.721051E-02  
72.630000             1.729137E-02  
72.650000             1.742544E-02  
72.670000             1.745311E-02  
72.690000             1.756061E-02  
72.710000             1.758829E-02  
72.730000             1.766920E-02  
72.750000             1.775011E-02  
72.770000             1.785765E-02  
72.790000             1.796520E-02  
72.810000             1.807277E-02  
72.830000             1.815373E-02  
72.850000             1.823470E-02  
72.870000             1.831568E-02  
72.890000             1.847654E-02  
72.910000             1.853091E-02  
72.930000             1.861193E-02  
72.950000             1.869295E-02  
72.970000             1.877398E-02  
72.990000             1.888166E-02  
73.010000             1.898934E-02  
73.030000             1.909704E-02  
73.050000             1.920476E-02  
73.070000             1.931248E-02  
73.090000             1.939358E-02  
73.110000             1.947469E-02  
73.130000             1.955581E-02  
73.150000             1.963694E-02  
73.170000             1.974473E-02  
73.190000             1.982588E-02  
73.210000             1.993369E-02  
73.230000             2.001486E-02  
73.250000             2.009604E-02  
73.270000             2.015058E-02  
73.290000             2.020513E-02  
73.310000             2.028634E-02  
73.330000             2.034090E-02  
73.350000             2.034214E-02  
73.370000             2.042338E-02  
73.390000             2.042463E-02  
73.410000             2.039921E-02  
73.430000             2.040046E-02  
73.450000             2.037504E-02  
73.470000             2.037629E-02  
73.490000             2.037754E-02  
73.510000             2.037878E-02  
73.530000             2.043338E-02  
73.550000             2.046131E-02  
73.570000             2.056928E-02  
73.590000             2.059722E-02  
73.610000             2.059848E-02  
73.630000             2.065311E-02  
73.650000             2.073443E-02  
73.670000             2.078908E-02  
73.690000             2.084373E-02  
73.710000             2.087170E-02  
73.730000             2.089967E-02  
73.750000             2.090095E-02  
73.770000             2.087554E-02  
73.790000             2.087682E-02  
73.810000             2.085140E-02  
73.830000             2.087938E-02  
73.850000             2.093406E-02  
73.870000             2.096205E-02  
73.890000             2.099004E-02  
73.910000             2.101803E-02  
73.930000             2.101932E-02  
73.950000             2.102061E-02  
73.970000             2.102190E-02  
73.990000             2.102319E-02  
74.010000             2.105119E-02  
74.030000             2.105248E-02  
74.050000             2.105378E-02  
74.070000             2.105507E-02  
74.090000             2.105636E-02  
74.110000             2.100421E-02  
74.130000             2.100549E-02  
74.150000             2.100678E-02  
74.170000             2.100807E-02  
74.190000             2.103609E-02  
74.210000             2.103738E-02  
74.230000             2.103867E-02  
74.250000             2.098650E-02  
74.270000             2.093431E-02  
74.290000             2.088212E-02  
74.310000             2.082993E-02  
74.330000             2.077772E-02  
74.350000             2.072551E-02  
74.370000             2.067330E-02  
74.390000             2.062108E-02  
74.410000             2.056885E-02  
74.430000             2.048986E-02  
74.450000             2.046437E-02  
74.470000             2.041212E-02  
74.490000             2.035987E-02  
74.510000             2.028085E-02  
74.530000             2.020183E-02  
74.550000             2.009603E-02  
74.570000             2.001699E-02  
74.590000             1.991117E-02  
74.610000             1.985886E-02  
74.630000             1.977979E-02  
74.650000             1.972747E-02  
74.670000             1.964837E-02  
74.690000             1.962281E-02  
74.710000             1.959725E-02  
74.730000             1.957168E-02  
74.750000             1.954610E-02  
74.770000             1.952053E-02  
74.790000             1.949495E-02  
74.810000             1.946937E-02  
74.830000             1.941700E-02  
74.850000             1.944498E-02  
74.870000             1.941939E-02  
74.890000             1.939380E-02  
74.910000             1.931463E-02  
74.930000             1.926223E-02  
74.950000             1.920983E-02  
74.970000             1.915743E-02  
74.990000             1.913181E-02  
75.010000             1.905260E-02  
75.030000             1.900017E-02  
75.050000             1.892094E-02  
75.070000             1.881490E-02  
75.090000             1.876245E-02  
75.110000             1.865639E-02  
75.130000             1.865753E-02  
75.150000             1.857826E-02  
75.170000             1.852578E-02  
75.190000             1.844649E-02  
75.210000             1.839400E-02  
75.230000             1.834150E-02  
75.250000             1.828899E-02  
75.270000             1.823648E-02  
75.290000             1.813033E-02  
75.310000             1.807780E-02  
75.330000             1.797162E-02  
75.350000             1.794590E-02  
75.370000             1.792018E-02  
75.390000             1.778714E-02  
75.410000             1.776141E-02  
75.430000             1.768201E-02  
75.450000             1.757577E-02  
75.470000             1.749634E-02  
75.490000             1.744375E-02  
75.510000             1.741799E-02  
75.530000             1.736538E-02  
75.550000             1.739329E-02  
75.570000             1.736752E-02  
75.590000             1.736859E-02  
75.610000             1.736966E-02  
75.630000             1.739758E-02  
75.650000             1.742550E-02  
75.670000             1.750713E-02  
75.690000             1.756192E-02  
75.710000             1.761671E-02  
75.730000             1.769837E-02  
75.750000             1.778003E-02  
75.770000             1.786171E-02  
75.790000             1.788967E-02  
75.810000             1.791764E-02  
75.830000             1.794561E-02  
75.850000             1.794671E-02  
75.870000             1.800156E-02  
75.890000             1.797580E-02  
75.910000             1.797691E-02  
75.930000             1.795114E-02  
75.950000             1.792538E-02  
75.970000             1.787273E-02  
75.990000             1.787383E-02  
76.010000             1.779430E-02  
76.030000             1.774164E-02  
76.050000             1.774273E-02  
76.070000             1.771694E-02  
76.090000             1.774492E-02  
76.110000             1.779979E-02  
76.130000             1.785467E-02  
76.150000             1.790956E-02  
76.170000             1.788377E-02  
76.190000             1.793866E-02  
76.210000             1.793977E-02  
76.230000             1.796778E-02  
76.250000             1.799579E-02  
76.270000             1.802380E-02  
76.290000             1.805181E-02  
76.310000             1.810674E-02  
76.330000             1.810786E-02  
76.350000             1.813588E-02  
76.370000             1.813701E-02  
76.390000             1.816504E-02  
76.410000             1.819307E-02  
76.430000             1.819420E-02  
76.450000             1.822224E-02  
76.470000             1.822336E-02  
76.490000             1.825141E-02  
76.510000             1.825254E-02  
76.530000             1.830751E-02  
76.550000             1.836249E-02  
76.570000             1.830978E-02  
76.590000             1.833784E-02  
76.610000             1.831204E-02  
76.630000             1.828624E-02  
76.650000             1.828737E-02  
76.670000             1.831544E-02  
76.690000             1.834351E-02  
76.710000             1.842546E-02  
76.730000             1.845354E-02  
76.750000             1.848162E-02  
76.770000             1.853665E-02  
76.790000             1.856474E-02  
76.810000             1.864673E-02  
76.830000             1.872872E-02  
76.850000             1.875683E-02  
76.870000             1.881189E-02  
76.890000             1.884001E-02  
76.910000             1.889509E-02  
76.930000             1.892321E-02  
76.950000             1.897830E-02  
76.970000             1.897947E-02  
76.990000             1.900761E-02  
77.010000             1.903575E-02  
77.030000             1.906389E-02  
77.050000             1.909204E-02  
77.070000             1.912019E-02  
77.090000             1.914834E-02  
77.110000             1.914953E-02  
77.130000             1.915072E-02  
77.150000             1.917888E-02  
77.170000             1.918006E-02  
77.190000             1.923521E-02  
77.210000             1.926338E-02  
77.230000             1.934552E-02  
77.250000             1.931973E-02  
77.270000             1.937490E-02  
77.290000             1.940309E-02  
77.310000             1.943128E-02  
77.330000             1.948646E-02  
77.350000             1.951466E-02  
77.370000             1.954286E-02  
77.390000             1.949008E-02  
77.410000             1.954528E-02  
77.430000             1.954650E-02  
77.450000             1.946671E-02  
77.470000             1.949492E-02  
77.490000             1.952313E-02  
77.510000             1.947033E-02  
77.530000             1.944453E-02  
77.550000             1.941873E-02  
77.570000             1.936592E-02  
77.590000             1.936712E-02  
77.610000             1.934130E-02  
77.630000             1.934250E-02  
77.650000             1.928967E-02  
77.670000             1.926385E-02  
77.690000             1.923803E-02  
77.710000             1.921220E-02  
77.730000             1.918637E-02  
77.750000             1.916053E-02  
77.770000             1.916172E-02  
77.790000             1.913588E-02  
77.810000             1.908301E-02  
77.830000             1.908420E-02  
77.850000             1.903132E-02  
77.870000             1.897843E-02  
77.890000             1.892553E-02  
77.910000             1.887263E-02  
77.930000             1.881972E-02  
77.950000             1.876681E-02  
77.970000             1.871389E-02  
77.990000             1.866096E-02  
78.010000             1.860803E-02  
78.030000             1.858213E-02  
78.050000             1.852919E-02  
78.070000             1.847624E-02  
78.090000             1.839622E-02  
78.110000             1.834326E-02  
78.130000             1.829028E-02  
78.150000             1.823730E-02  
78.170000             1.818432E-02  
78.190000             1.815838E-02  
78.210000             1.810539E-02  
78.230000             1.805238E-02  
78.250000             1.799937E-02  
78.270000             1.794635E-02  
78.290000             1.789333E-02  
78.310000             1.781322E-02  
78.330000             1.778726E-02  
78.350000             1.770714E-02  
78.370000             1.765409E-02  
78.390000             1.760103E-02  
78.410000             1.754796E-02  
78.430000             1.752197E-02  
78.450000             1.746889E-02  
78.470000             1.744289E-02  
78.490000             1.733563E-02  
78.510000             1.728253E-02  
78.530000             1.720234E-02  
78.550000             1.712213E-02  
78.570000             1.704192E-02  
78.590000             1.696169E-02  
78.610000             1.685436E-02  
78.630000             1.677411E-02  
78.650000             1.663965E-02  
78.670000             1.653228E-02  
78.690000             1.642489E-02  
78.710000             1.631749E-02  
78.730000             1.621008E-02  
78.750000             1.610265E-02  
78.770000             1.602233E-02  
78.790000             1.588776E-02  
78.810000             1.578030E-02  
78.830000             1.567282E-02  
78.850000             1.559244E-02  
78.870000             1.553917E-02  
78.890000             1.548590E-02  
78.910000             1.545974E-02  
78.930000             1.535221E-02  
78.950000             1.529891E-02  
78.970000             1.524561E-02  
78.990000             1.519230E-02  
79.010000             1.516612E-02  
79.030000             1.511280E-02  
79.050000             1.505947E-02  
79.070000             1.500614E-02  
79.090000             1.497994E-02  
79.110000             1.495373E-02  
79.130000             1.492752E-02  
79.150000             1.492845E-02  
79.170000             1.484795E-02  
79.190000             1.484887E-02  
79.210000             1.482265E-02  
79.230000             1.482358E-02  
79.250000             1.479735E-02  
79.270000             1.474397E-02  
79.290000             1.474489E-02  
79.310000             1.474581E-02  
79.330000             1.480104E-02  
79.350000             1.480196E-02  
79.370000             1.483005E-02  
79.390000             1.488530E-02  
79.410000             1.491339E-02  
79.430000             1.491432E-02  
79.450000             1.494242E-02  
79.470000             1.497052E-02  
79.490000             1.497146E-02  
79.510000             1.494522E-02  
79.530000             1.497333E-02  
79.550000             1.502861E-02  
79.570000             1.497519E-02  
79.590000             1.494895E-02  
79.610000             1.492270E-02  
79.630000             1.492363E-02  
79.650000             1.492456E-02  
79.670000             1.492550E-02  
79.690000             1.492643E-02  
79.710000             1.490017E-02  
79.730000             1.487391E-02  
79.750000             1.484764E-02  
79.770000             1.482138E-02  
79.790000             1.479510E-02  
79.810000             1.479603E-02  
79.830000             1.482415E-02  
79.850000             1.482508E-02  
79.870000             1.490762E-02  
79.890000             1.493575E-02  
79.910000             1.499110E-02  
79.930000             1.501925E-02  
79.950000             1.510182E-02  
79.970000             1.521161E-02  
79.990000             1.532141E-02  
