#### t[ps] ### MACF <V(0)*V(t)> 
0.010000              1.530890E-01  
0.030000              1.495900E-01  
0.050000              1.481474E-01  
0.070000              1.468647E-01  
0.090000              1.456618E-01  
0.110000              1.445389E-01  
0.130000              1.434025E-01  
0.150000              1.423027E-01  
0.170000              1.412161E-01  
0.190000              1.401994E-01  
0.210000              1.391760E-01  
0.230000              1.381491E-01  
0.250000              1.371855E-01  
0.270000              1.362184E-01  
0.290000              1.353046E-01  
0.310000              1.344241E-01  
0.330000              1.334901E-01  
0.350000              1.325594E-01  
0.370000              1.316586E-01  
0.390000              1.307677E-01  
0.410000              1.298767E-01  
0.430000              1.290090E-01  
0.450000              1.281846E-01  
0.470000              1.273401E-01  
0.490000              1.265389E-01  
0.510000              1.257476E-01  
0.530000              1.249128E-01  
0.550000              1.241047E-01  
0.570000              1.233031E-01  
0.590000              1.224848E-01  
0.610000              1.216998E-01  
0.630000              1.209047E-01  
0.650000              1.201229E-01  
0.670000              1.193409E-01  
0.690000              1.185923E-01  
0.710000              1.178370E-01  
0.730000              1.170782E-01  
0.750000              1.163361E-01  
0.770000              1.156172E-01  
0.790000              1.148983E-01  
0.810000              1.141860E-01  
0.830000              1.134903E-01  
0.850000              1.127946E-01  
0.870000              1.121054E-01  
0.890000              1.114262E-01  
0.910000              1.107269E-01  
0.930000              1.100677E-01  
0.950000              1.094250E-01  
0.970000              1.087990E-01  
0.990000              1.081462E-01  
1.010000              1.075301E-01  
1.030000              1.068605E-01  
1.050000              1.062376E-01  
1.070000              1.056380E-01  
1.090000              1.049749E-01  
1.110000              1.043718E-01  
1.130000              1.037018E-01  
1.150000              1.030786E-01  
1.170000              1.024420E-01  
1.190000              1.018186E-01  
1.210000              1.012286E-01  
1.230000              1.006520E-01  
1.250000              1.000552E-01  
1.270000              9.950179E-02  
1.290000              9.896507E-02  
1.310000              9.841493E-02  
1.330000              9.786138E-02  
1.350000              9.734791E-02  
1.370000              9.683105E-02  
1.390000              9.630745E-02  
1.410000              9.577710E-02  
1.430000              9.526677E-02  
1.450000              9.473966E-02  
1.470000              9.419577E-02  
1.490000              9.369867E-02  
1.510000              9.321824E-02  
1.530000              9.270765E-02  
1.550000              9.222713E-02  
1.570000              9.172313E-02  
1.590000              9.120570E-02  
1.610000              9.073172E-02  
1.630000              9.023092E-02  
1.650000              8.976020E-02  
1.670000              8.932289E-02  
1.690000              8.885207E-02  
1.710000              8.840463E-02  
1.730000              8.795046E-02  
1.750000              8.748954E-02  
1.770000              8.702523E-02  
1.790000              8.657426E-02  
1.810000              8.616678E-02  
1.830000              8.574920E-02  
1.850000              8.532155E-02  
1.870000              8.487375E-02  
1.890000              8.443596E-02  
1.910000              8.401487E-02  
1.930000              8.362723E-02  
1.950000              8.322280E-02  
1.970000              8.281164E-02  
1.990000              8.240713E-02  
2.010000              8.199588E-02  
2.030000              8.160134E-02  
2.050000              8.121346E-02  
2.070000              8.082219E-02  
2.090000              8.044094E-02  
2.110000              8.006634E-02  
2.130000              7.966156E-02  
2.150000              7.929694E-02  
2.170000              7.888872E-02  
2.190000              7.848381E-02  
2.210000              7.808221E-02  
2.230000              7.769398E-02  
2.250000              7.730907E-02  
2.270000              7.694757E-02  
2.290000              7.658940E-02  
2.310000              7.622113E-02  
2.330000              7.585953E-02  
2.350000              7.551800E-02  
2.370000              7.516974E-02  
2.390000              7.482145E-02  
2.410000              7.447647E-02  
2.430000              7.412140E-02  
2.450000              7.378305E-02  
2.470000              7.344468E-02  
2.490000              7.308950E-02  
2.510000              7.275106E-02  
2.530000              7.241593E-02  
2.550000              7.209419E-02  
2.570000              7.177578E-02  
2.590000              7.147410E-02  
2.610000              7.118582E-02  
2.630000              7.088408E-02  
2.650000              7.056218E-02  
2.670000              7.024696E-02  
2.690000              6.994178E-02  
2.710000              6.964663E-02  
2.730000              6.934474E-02  
2.750000              6.902604E-02  
2.770000              6.872745E-02  
2.790000              6.845232E-02  
2.810000              6.817381E-02  
2.830000              6.790534E-02  
2.850000              6.763348E-02  
2.870000              6.734817E-02  
2.890000              6.706955E-02  
2.910000              6.679425E-02  
2.930000              6.651893E-02  
2.950000              6.625029E-02  
2.970000              6.597156E-02  
2.990000              6.569615E-02  
3.010000              6.543079E-02  
3.030000              6.520571E-02  
3.050000              6.496717E-02  
3.070000              6.471853E-02  
3.090000              6.445642E-02  
3.110000              6.421445E-02  
3.130000              6.396573E-02  
3.150000              6.370355E-02  
3.170000              6.345479E-02  
3.190000              6.322615E-02  
3.210000              6.298070E-02  
3.230000              6.271841E-02  
3.250000              6.245610E-02  
3.270000              6.218369E-02  
3.290000              6.193813E-02  
3.310000              6.168246E-02  
3.330000              6.141669E-02  
3.350000              6.119122E-02  
3.370000              6.098254E-02  
3.390000              6.076375E-02  
3.410000              6.053149E-02  
3.430000              6.029921E-02  
3.450000              6.008708E-02  
3.470000              5.987492E-02  
3.490000              5.965602E-02  
3.510000              5.943374E-02  
3.530000              5.920471E-02  
3.550000              5.896893E-02  
3.570000              5.872976E-02  
3.590000              5.851075E-02  
3.610000              5.829844E-02  
3.630000              5.807602E-02  
3.650000              5.783676E-02  
3.670000              5.760420E-02  
3.690000              5.735480E-02  
3.710000              5.713228E-02  
3.730000              5.690975E-02  
3.750000              5.668046E-02  
3.770000              5.648480E-02  
3.790000              5.629248E-02  
3.810000              5.610015E-02  
3.830000              5.588423E-02  
3.850000              5.566493E-02  
3.870000              5.545234E-02  
3.890000              5.521954E-02  
3.910000              5.502710E-02  
3.930000              5.481444E-02  
3.950000              5.461523E-02  
3.970000              5.440926E-02  
3.990000              5.421001E-02  
4.010000              5.401074E-02  
4.030000              5.379461E-02  
4.050000              5.359193E-02  
4.070000              5.339597E-02  
4.090000              5.318314E-02  
4.110000              5.298714E-02  
4.130000              5.278101E-02  
4.150000              5.257822E-02  
4.170000              5.238889E-02  
4.190000              5.217596E-02  
4.210000              5.197986E-02  
4.230000              5.178036E-02  
4.250000              5.158421E-02  
4.270000              5.138805E-02  
4.290000              5.118849E-02  
4.310000              5.101587E-02  
4.330000              5.081964E-02  
4.350000              5.061666E-02  
4.370000              5.043050E-02  
4.390000              5.024433E-02  
4.410000              5.005477E-02  
4.430000              4.988541E-02  
4.450000              4.969243E-02  
4.470000              4.950619E-02  
4.490000              4.932666E-02  
4.510000              4.915723E-02  
4.530000              4.899452E-02  
4.550000              4.881157E-02  
4.570000              4.863872E-02  
4.590000              4.846247E-02  
4.610000              4.831319E-02  
4.630000              4.814365E-02  
4.650000              4.798085E-02  
4.670000              4.784500E-02  
4.690000              4.771252E-02  
4.710000              4.758002E-02  
4.730000              4.743739E-02  
4.750000              4.730149E-02  
4.770000              4.715209E-02  
4.790000              4.699929E-02  
4.810000              4.682287E-02  
4.830000              4.668016E-02  
4.850000              4.650708E-02  
4.870000              4.634410E-02  
4.890000              4.619460E-02  
4.910000              4.602146E-02  
4.930000              4.587193E-02  
4.950000              4.571564E-02  
4.970000              4.555257E-02  
4.990000              4.536249E-02  
5.010000              4.519940E-02  
5.030000              4.502954E-02  
5.050000              4.485966E-02  
5.070000              4.471339E-02  
5.090000              4.457048E-02  
5.110000              4.444782E-02  
5.130000              4.433865E-02  
5.150000              4.419571E-02  
5.170000              4.407638E-02  
5.190000              4.394354E-02  
5.210000              4.382419E-02  
5.230000              4.368457E-02  
5.250000              4.355168E-02  
5.270000              4.342216E-02  
5.290000              4.330276E-02  
5.310000              4.316984E-02  
5.330000              4.304704E-02  
5.350000              4.291409E-02  
5.370000              4.276424E-02  
5.390000              4.263464E-02  
5.410000              4.249151E-02  
5.430000              4.234161E-02  
5.450000              4.219508E-02  
5.470000              4.204853E-02  
5.490000              4.189520E-02  
5.510000              4.175876E-02  
5.530000              4.161555E-02  
5.550000              4.147570E-02  
5.570000              4.133583E-02  
5.590000              4.118244E-02  
5.610000              4.104592E-02  
5.630000              4.090602E-02  
5.650000              4.077286E-02  
5.670000              4.062954E-02  
5.690000              4.049974E-02  
5.710000              4.037330E-02  
5.730000              4.022656E-02  
5.750000              4.010010E-02  
5.770000              3.995333E-02  
5.790000              3.979978E-02  
5.810000              3.964960E-02  
5.830000              3.950617E-02  
5.850000              3.933567E-02  
5.870000              3.918882E-02  
5.890000              3.902843E-02  
5.910000              3.886803E-02  
5.930000              3.872452E-02  
5.950000              3.856408E-02  
5.970000              3.841378E-02  
5.990000              3.826008E-02  
6.010000              3.811651E-02  
6.030000              3.795939E-02  
6.050000              3.782256E-02  
6.070000              3.767895E-02  
6.090000              3.752856E-02  
6.110000              3.736122E-02  
6.130000              3.719726E-02  
6.150000              3.704682E-02  
6.170000              3.690313E-02  
6.190000              3.674927E-02  
6.210000              3.660217E-02  
6.230000              3.646860E-02  
6.250000              3.633162E-02  
6.270000              3.619802E-02  
6.290000              3.603054E-02  
6.310000              3.590030E-02  
6.330000              3.577343E-02  
6.350000              3.561268E-02  
6.370000              3.547901E-02  
6.390000              3.536226E-02  
6.410000              3.524211E-02  
6.430000              3.512195E-02  
6.450000              3.499162E-02  
6.470000              3.487821E-02  
6.490000              3.478511E-02  
6.510000              3.467846E-02  
6.530000              3.458535E-02  
6.550000              3.448206E-02  
6.570000              3.439231E-02  
6.590000              3.431951E-02  
6.610000              3.422636E-02  
6.630000              3.414337E-02  
6.650000              3.405698E-02  
6.670000              3.395363E-02  
6.690000              3.385366E-02  
6.710000              3.376386E-02  
6.730000              3.366048E-02  
6.750000              3.357404E-02  
6.770000              3.349099E-02  
6.790000              3.339097E-02  
6.810000              3.329773E-02  
6.830000              3.322143E-02  
6.850000              3.313495E-02  
6.870000              3.303151E-02  
6.890000              3.293144E-02  
6.910000              3.283815E-02  
6.930000              3.275502E-02  
6.950000              3.267189E-02  
6.970000              3.258196E-02  
6.990000              3.249542E-02  
7.010000              3.241226E-02  
7.030000              3.232570E-02  
7.050000              3.223234E-02  
7.070000              3.213219E-02  
7.090000              3.205578E-02  
7.110000              3.196240E-02  
7.130000              3.186901E-02  
7.150000              3.178918E-02  
7.170000              3.169916E-02  
7.190000              3.161932E-02  
7.210000              3.154626E-02  
7.230000              3.147318E-02  
7.250000              3.140350E-02  
7.270000              3.133720E-02  
7.290000              3.126751E-02  
7.310000              3.120799E-02  
7.330000              3.113488E-02  
7.350000              3.106516E-02  
7.370000              3.099883E-02  
7.390000              3.092570E-02  
7.410000              3.084238E-02  
7.430000              3.077602E-02  
7.450000              3.071985E-02  
7.470000              3.065009E-02  
7.490000              3.060750E-02  
7.510000              3.053093E-02  
7.530000              3.046454E-02  
7.550000              3.042873E-02  
7.570000              3.037252E-02  
7.590000              3.031291E-02  
7.610000              3.026010E-02  
7.630000              3.019368E-02  
7.650000              3.012046E-02  
7.670000              3.004384E-02  
7.690000              2.997740E-02  
7.710000              2.991436E-02  
7.730000              2.985130E-02  
7.750000              2.977805E-02  
7.770000              2.969459E-02  
7.790000              2.961792E-02  
7.810000              2.954804E-02  
7.830000              2.948156E-02  
7.850000              2.940826E-02  
7.870000              2.932477E-02  
7.890000              2.924806E-02  
7.910000              2.916114E-02  
7.930000              2.909122E-02  
7.950000              2.901449E-02  
7.970000              2.893435E-02  
7.990000              2.885420E-02  
8.010000              2.876724E-02  
8.030000              2.866667E-02  
8.050000              2.856608E-02  
8.070000              2.846549E-02  
8.090000              2.835128E-02  
8.110000              2.825407E-02  
8.130000              2.815344E-02  
8.150000              2.805621E-02  
8.170000              2.796917E-02  
8.190000              2.787873E-02  
8.210000              2.777806E-02  
8.230000              2.767398E-02  
8.250000              2.758691E-02  
8.270000              2.748622E-02  
8.290000              2.739913E-02  
8.310000              2.732904E-02  
8.330000              2.725215E-02  
8.350000              2.716503E-02  
8.370000              2.706089E-02  
8.390000              2.698396E-02  
8.410000              2.690704E-02  
8.430000              2.684031E-02  
8.450000              2.677699E-02  
8.470000              2.670004E-02  
8.490000              2.662989E-02  
8.510000              2.654952E-02  
8.530000              2.646914E-02  
8.550000              2.640918E-02  
8.570000              2.634582E-02  
8.590000              2.628585E-02  
8.610000              2.620203E-02  
8.630000              2.613183E-02  
8.650000              2.606503E-02  
8.670000              2.600164E-02  
8.690000              2.591438E-02  
8.710000              2.583393E-02  
8.730000              2.576029E-02  
8.750000              2.567641E-02  
8.770000              2.563342E-02  
8.790000              2.555976E-02  
8.810000              2.547245E-02  
8.830000              2.539196E-02  
8.850000              2.531145E-02  
8.870000              2.524116E-02  
8.890000              2.518109E-02  
8.910000              2.512102E-02  
8.930000              2.506435E-02  
8.950000              2.500426E-02  
8.970000              2.494417E-02  
8.990000              2.487384E-02  
9.010000              2.481033E-02  
9.030000              2.474680E-02  
9.050000              2.469351E-02  
9.070000              2.464361E-02  
9.090000              2.458348E-02  
9.110000              2.452335E-02  
9.130000              2.447003E-02  
9.150000              2.440647E-02  
9.170000              2.435314E-02  
9.190000              2.428274E-02  
9.210000              2.422257E-02  
9.230000              2.416240E-02  
9.250000              2.409881E-02  
9.270000              2.403180E-02  
9.290000              2.396478E-02  
9.310000              2.388752E-02  
9.330000              2.381708E-02  
9.350000              2.375346E-02  
9.370000              2.367958E-02  
9.390000              2.362960E-02  
9.410000              2.358302E-02  
9.430000              2.351596E-02  
9.450000              2.346596E-02  
9.470000              2.339888E-02  
9.490000              2.333180E-02  
9.510000              2.325446E-02  
9.530000              2.319420E-02  
9.550000              2.313734E-02  
9.570000              2.306681E-02  
9.590000              2.299628E-02  
9.610000              2.293598E-02  
9.630000              2.286885E-02  
9.650000              2.279830E-02  
9.670000              2.274482E-02  
9.690000              2.269474E-02  
9.710000              2.264467E-02  
9.730000              2.260483E-02  
9.750000              2.255816E-02  
9.770000              2.252174E-02  
9.790000              2.248872E-02  
9.810000              2.245571E-02  
9.830000              2.242269E-02  
9.850000              2.239308E-02  
9.870000              2.236689E-02  
9.890000              2.232361E-02  
9.910000              2.229741E-02  
9.930000              2.226096E-02  
9.950000              2.222792E-02  
9.970000              2.219488E-02  
9.990000              2.215499E-02  
10.010000             2.213562E-02  
10.030000             2.210256E-02  
10.050000             2.208660E-02  
10.070000             2.206380E-02  
10.090000             2.203758E-02  
10.110000             2.200109E-02  
10.130000             2.197829E-02  
10.150000             2.197257E-02  
10.170000             2.194976E-02  
10.190000             2.193036E-02  
10.210000             2.192465E-02  
10.230000             2.192235E-02  
10.250000             2.190637E-02  
10.270000             2.189039E-02  
10.290000             2.186757E-02  
10.310000             2.185159E-02  
10.330000             2.181507E-02  
10.350000             2.179224E-02  
10.370000             2.176256E-02  
10.390000             2.171577E-02  
10.410000             2.168609E-02  
10.430000             2.165298E-02  
10.450000             2.163355E-02  
10.470000             2.160728E-02  
10.490000             2.156732E-02  
10.510000             2.153420E-02  
10.530000             2.150792E-02  
10.550000             2.148163E-02  
10.570000             2.147247E-02  
10.590000             2.144276E-02  
10.610000             2.142331E-02  
10.630000             2.141757E-02  
10.650000             2.139470E-02  
10.670000             2.137182E-02  
10.690000             2.134552E-02  
10.710000             2.133292E-02  
10.730000             2.132717E-02  
10.750000             2.131114E-02  
10.770000             2.129853E-02  
10.790000             2.128250E-02  
10.810000             2.126304E-02  
10.830000             2.125385E-02  
10.850000             2.123439E-02  
10.870000             2.121150E-02  
10.890000             2.118860E-02  
10.910000             2.116228E-02  
10.930000             2.114623E-02  
10.950000             2.111305E-02  
10.970000             2.109015E-02  
10.990000             2.107410E-02  
11.010000             2.105119E-02  
11.030000             2.103856E-02  
11.050000             2.102250E-02  
11.070000             2.098245E-02  
11.090000             2.095953E-02  
11.110000             2.095375E-02  
11.130000             2.093769E-02  
11.150000             2.091134E-02  
11.170000             2.088841E-02  
11.190000             2.085862E-02  
11.210000             2.083569E-02  
11.230000             2.080590E-02  
11.250000             2.080354E-02  
11.270000             2.079775E-02  
11.290000             2.077481E-02  
11.310000             2.075187E-02  
11.330000             2.072893E-02  
11.350000             2.071284E-02  
11.370000             2.070704E-02  
11.390000             2.067380E-02  
11.410000             2.066114E-02  
11.430000             2.064162E-02  
11.450000             2.063582E-02  
11.470000             2.060943E-02  
11.490000             2.057961E-02  
11.510000             2.054291E-02  
11.530000             2.051995E-02  
11.550000             2.047639E-02  
11.570000             2.045341E-02  
11.590000             2.041671E-02  
11.610000             2.038343E-02  
11.630000             2.036045E-02  
11.650000             2.033404E-02  
11.670000             2.030075E-02  
11.690000             2.030180E-02  
11.710000             2.028224E-02  
11.730000             2.027642E-02  
11.750000             2.026373E-02  
11.770000             2.024417E-02  
11.790000             2.022804E-02  
11.810000             2.022221E-02  
11.830000             2.020264E-02  
11.850000             2.018308E-02  
11.870000             2.015664E-02  
11.890000             2.012332E-02  
11.910000             2.010375E-02  
11.930000             2.008074E-02  
11.950000             2.006803E-02  
11.970000             2.005875E-02  
11.990000             2.003230E-02  
12.010000             2.000584E-02  
12.030000             1.997251E-02  
12.050000             1.993574E-02  
12.070000             1.990927E-02  
12.090000             1.989655E-02  
12.110000             1.986320E-02  
12.130000             1.983673E-02  
12.150000             1.983431E-02  
12.170000             1.980440E-02  
12.190000             1.977448E-02  
12.210000             1.973424E-02  
12.230000             1.968712E-02  
12.250000             1.965719E-02  
12.270000             1.961007E-02  
12.290000             1.958013E-02  
12.310000             1.954675E-02  
12.330000             1.950649E-02  
12.350000             1.946279E-02  
12.370000             1.943284E-02  
12.390000             1.938568E-02  
12.410000             1.933165E-02  
12.430000             1.928105E-02  
12.450000             1.922700E-02  
12.470000             1.916262E-02  
12.490000             1.912233E-02  
12.510000             1.909235E-02  
12.530000             1.903828E-02  
12.550000             1.899797E-02  
12.570000             1.892668E-02  
12.590000             1.886916E-02  
12.610000             1.881507E-02  
12.630000             1.877474E-02  
12.650000             1.871375E-02  
12.670000             1.865620E-02  
12.690000             1.861586E-02  
12.710000             1.858928E-02  
12.730000             1.856614E-02  
12.750000             1.853267E-02  
12.770000             1.849231E-02  
12.790000             1.845539E-02  
12.810000             1.841847E-02  
12.830000             1.838843E-02  
12.850000             1.834806E-02  
12.870000             1.830423E-02  
12.890000             1.828107E-02  
12.910000             1.824068E-02  
12.930000             1.817963E-02  
12.950000             1.813923E-02  
12.970000             1.810228E-02  
12.990000             1.805843E-02  
13.010000             1.801802E-02  
13.030000             1.799139E-02  
13.050000             1.795442E-02  
13.070000             1.793812E-02  
13.090000             1.791148E-02  
13.110000             1.788139E-02  
13.130000             1.784096E-02  
13.150000             1.781086E-02  
13.170000             1.778421E-02  
13.190000             1.775066E-02  
13.210000             1.772401E-02  
13.230000             1.768356E-02  
13.250000             1.764655E-02  
13.270000             1.760610E-02  
13.290000             1.756908E-02  
13.310000             1.753896E-02  
13.330000             1.750884E-02  
13.350000             1.747181E-02  
13.370000             1.745203E-02  
13.390000             1.740465E-02  
13.410000             1.736416E-02  
13.430000             1.734437E-02  
13.450000             1.730388E-02  
13.470000             1.727718E-02  
13.490000             1.723668E-02  
13.510000             1.720998E-02  
13.530000             1.718327E-02  
13.550000             1.714621E-02  
13.570000             1.710224E-02  
13.590000             1.706518E-02  
13.610000             1.703846E-02  
13.630000             1.700828E-02  
13.650000             1.697810E-02  
13.670000             1.694102E-02  
13.690000             1.687978E-02  
13.710000             1.684269E-02  
13.730000             1.679869E-02  
13.750000             1.676159E-02  
13.770000             1.671758E-02  
13.790000             1.667357E-02  
13.810000             1.663301E-02  
13.830000             1.660280E-02  
13.850000             1.656568E-02  
13.870000             1.653201E-02  
13.890000             1.649488E-02  
13.910000             1.646466E-02  
13.930000             1.642407E-02  
13.950000             1.640075E-02  
13.970000             1.636360E-02  
13.990000             1.632646E-02  
14.010000             1.629622E-02  
14.030000             1.625216E-02  
14.050000             1.621846E-02  
14.070000             1.618821E-02  
14.090000             1.615795E-02  
14.110000             1.613115E-02  
14.130000             1.610089E-02  
14.150000             1.608445E-02  
14.170000             1.605418E-02  
14.190000             1.602737E-02  
14.210000             1.599364E-02  
14.230000             1.596337E-02  
14.250000             1.594000E-02  
14.270000             1.591318E-02  
14.290000             1.587944E-02  
14.310000             1.585606E-02  
14.330000             1.582923E-02  
14.350000             1.580931E-02  
14.370000             1.578938E-02  
14.390000             1.576946E-02  
14.410000             1.576336E-02  
14.430000             1.575035E-02  
14.450000             1.573041E-02  
14.470000             1.572086E-02  
14.490000             1.570438E-02  
14.510000             1.568790E-02  
14.530000             1.565759E-02  
14.550000             1.563419E-02  
14.570000             1.561424E-02  
14.590000             1.558738E-02  
14.610000             1.556397E-02  
14.630000             1.553710E-02  
14.650000             1.549985E-02  
14.670000             1.546260E-02  
14.690000             1.542534E-02  
14.710000             1.539500E-02  
14.730000             1.537157E-02  
14.750000             1.535853E-02  
14.770000             1.532125E-02  
14.790000             1.530128E-02  
14.810000             1.527785E-02  
14.830000             1.526826E-02  
14.850000             1.524828E-02  
14.870000             1.522830E-02  
14.890000             1.521525E-02  
14.910000             1.519526E-02  
14.930000             1.518567E-02  
14.950000             1.518645E-02  
14.970000             1.519763E-02  
14.990000             1.520188E-02  
15.010000             1.520614E-02  
15.030000             1.520346E-02  
15.050000             1.520772E-02  
15.070000             1.519465E-02  
15.090000             1.519198E-02  
15.110000             1.519277E-02  
15.130000             1.519356E-02  
15.150000             1.518395E-02  
15.170000             1.517435E-02  
15.190000             1.518207E-02  
15.210000             1.517246E-02  
15.230000             1.516979E-02  
15.250000             1.516711E-02  
15.270000             1.515404E-02  
15.290000             1.514443E-02  
15.310000             1.513828E-02  
15.330000             1.513214E-02  
15.350000             1.513292E-02  
15.370000             1.512678E-02  
15.390000             1.512410E-02  
15.410000             1.511449E-02  
15.430000             1.512567E-02  
15.450000             1.512646E-02  
15.470000             1.513418E-02  
15.490000             1.513150E-02  
15.510000             1.514269E-02  
15.530000             1.515388E-02  
15.550000             1.515467E-02  
15.570000             1.515892E-02  
15.590000             1.516318E-02  
15.610000             1.516744E-02  
15.630000             1.518210E-02  
15.650000             1.519677E-02  
15.670000             1.520450E-02  
15.690000             1.521223E-02  
15.710000             1.521302E-02  
15.730000             1.522075E-02  
15.750000             1.523542E-02  
15.770000             1.525703E-02  
15.790000             1.527518E-02  
15.810000             1.527597E-02  
15.830000             1.526635E-02  
15.850000             1.527409E-02  
15.870000             1.526794E-02  
15.890000             1.526874E-02  
15.910000             1.526606E-02  
15.930000             1.527033E-02  
15.950000             1.528154E-02  
15.970000             1.527539E-02  
15.990000             1.528313E-02  
16.010000             1.527351E-02  
16.030000             1.527083E-02  
16.050000             1.526816E-02  
16.070000             1.527590E-02  
16.090000             1.528017E-02  
16.110000             1.528791E-02  
16.130000             1.529218E-02  
16.150000             1.529645E-02  
16.170000             1.529377E-02  
16.190000             1.529109E-02  
16.210000             1.528842E-02  
16.230000             1.530311E-02  
16.250000             1.530738E-02  
16.270000             1.530470E-02  
16.290000             1.529508E-02  
16.310000             1.528545E-02  
16.330000             1.526887E-02  
16.350000             1.525577E-02  
16.370000             1.524961E-02  
16.390000             1.523998E-02  
16.410000             1.522687E-02  
16.430000             1.521029E-02  
16.450000             1.520065E-02  
16.470000             1.519102E-02  
16.490000             1.517790E-02  
16.510000             1.517174E-02  
16.530000             1.516558E-02  
16.550000             1.515246E-02  
16.570000             1.514282E-02  
16.590000             1.513318E-02  
16.610000             1.511658E-02  
16.630000             1.510346E-02  
16.650000             1.508686E-02  
16.670000             1.507373E-02  
16.690000             1.505713E-02  
16.710000             1.504748E-02  
16.730000             1.504131E-02  
16.750000             1.501426E-02  
16.770000             1.497678E-02  
16.790000             1.494973E-02  
16.810000             1.492963E-02  
16.830000             1.490605E-02  
16.850000             1.489291E-02  
16.870000             1.486933E-02  
16.890000             1.484923E-02  
16.910000             1.482564E-02  
16.930000             1.480205E-02  
16.950000             1.476454E-02  
16.970000             1.472702E-02  
16.990000             1.468950E-02  
17.010000             1.465546E-02  
17.030000             1.462489E-02  
17.050000             1.459084E-02  
17.070000             1.457071E-02  
17.090000             1.453666E-02  
17.110000             1.450608E-02  
17.130000             1.446505E-02  
17.150000             1.442053E-02  
17.170000             1.436905E-02  
17.190000             1.433497E-02  
17.210000             1.429741E-02  
17.230000             1.424591E-02  
17.250000             1.420137E-02  
17.270000             1.416031E-02  
17.290000             1.411228E-02  
17.310000             1.406076E-02  
17.330000             1.401620E-02  
17.350000             1.397164E-02  
17.370000             1.392010E-02  
17.390000             1.386856E-02  
17.410000             1.382050E-02  
17.430000             1.377592E-02  
17.450000             1.372088E-02  
17.470000             1.366932E-02  
17.490000             1.362472E-02  
17.510000             1.358012E-02  
17.530000             1.352505E-02  
17.550000             1.347696E-02  
17.570000             1.343583E-02  
17.590000             1.339469E-02  
17.610000             1.335356E-02  
17.630000             1.331590E-02  
17.650000             1.327475E-02  
17.670000             1.323709E-02  
17.690000             1.319942E-02  
17.710000             1.315826E-02  
17.730000             1.312059E-02  
17.750000             1.307244E-02  
17.770000             1.302081E-02  
17.790000             1.297614E-02  
17.810000             1.292798E-02  
17.830000             1.288680E-02  
17.850000             1.284909E-02  
17.870000             1.279394E-02  
17.890000             1.275623E-02  
17.910000             1.272201E-02  
17.930000             1.267731E-02  
17.950000             1.263261E-02  
17.970000             1.259488E-02  
17.990000             1.255366E-02  
18.010000             1.252988E-02  
18.030000             1.248866E-02  
18.050000             1.243346E-02  
18.070000             1.237826E-02  
18.090000             1.233003E-02  
18.110000             1.228530E-02  
18.130000             1.222659E-02  
18.150000             1.217835E-02  
18.170000             1.213010E-02  
18.190000             1.208185E-02  
18.210000             1.203010E-02  
18.230000             1.198184E-02  
18.250000             1.193008E-02  
18.270000             1.188530E-02  
18.290000             1.183703E-02  
18.310000             1.178875E-02  
18.330000             1.173697E-02  
18.350000             1.168169E-02  
18.370000             1.164038E-02  
18.390000             1.159208E-02  
18.410000             1.155425E-02  
18.430000             1.151293E-02  
18.450000             1.149257E-02  
18.470000             1.146172E-02  
18.490000             1.143087E-02  
18.510000             1.141050E-02  
18.530000             1.138663E-02  
18.550000             1.135927E-02  
18.570000             1.132840E-02  
18.590000             1.128705E-02  
18.610000             1.123870E-02  
18.630000             1.120783E-02  
18.650000             1.117346E-02  
18.670000             1.114258E-02  
18.690000             1.111869E-02  
18.710000             1.109130E-02  
18.730000             1.105691E-02  
18.750000             1.103301E-02  
18.770000             1.100212E-02  
18.790000             1.097471E-02  
18.810000             1.093682E-02  
18.830000             1.091291E-02  
18.850000             1.087850E-02  
18.870000             1.086158E-02  
18.890000             1.083067E-02  
18.910000             1.079275E-02  
18.930000             1.075833E-02  
18.950000             1.073440E-02  
18.970000             1.071047E-02  
18.990000             1.069354E-02  
19.010000             1.067311E-02  
19.030000             1.064567E-02  
19.050000             1.060773E-02  
19.070000             1.057329E-02  
19.090000             1.054234E-02  
19.110000             1.051489E-02  
19.130000             1.048744E-02  
19.150000             1.045999E-02  
19.170000             1.044303E-02  
19.190000             1.042257E-02  
19.210000             1.039511E-02  
19.230000             1.037115E-02  
19.250000             1.034718E-02  
19.270000             1.032671E-02  
19.290000             1.030625E-02  
19.310000             1.027177E-02  
19.330000             1.025129E-02  
19.350000             1.022031E-02  
19.370000             1.018932E-02  
19.390000             1.016884E-02  
19.410000             1.015186E-02  
19.430000             1.013137E-02  
19.450000             1.011088E-02  
19.470000             1.009740E-02  
19.490000             1.008041E-02  
19.510000             1.006693E-02  
19.530000             1.004643E-02  
19.550000             1.002243E-02  
19.570000             1.000894E-02  
19.590000             9.995444E-03  
19.610000             9.985455E-03  
19.630000             9.978970E-03  
19.650000             9.961968E-03  
19.670000             9.944964E-03  
19.690000             9.938476E-03  
19.710000             9.935493E-03  
19.730000             9.907967E-03  
19.750000             9.894464E-03  
19.770000             9.873946E-03  
19.790000             9.863946E-03  
19.810000             9.860958E-03  
19.830000             9.854463E-03  
19.850000             9.851474E-03  
19.870000             9.834456E-03  
19.890000             9.827958E-03  
19.910000             9.821460E-03  
19.930000             9.825485E-03  
19.950000             9.829510E-03  
19.970000             9.833535E-03  
19.990000             9.827036E-03  
20.010000             9.824044E-03  
20.030000             9.824561E-03  
20.050000             9.828587E-03  
20.070000             9.843141E-03  
20.090000             9.868225E-03  
20.110000             9.896820E-03  
20.130000             9.914890E-03  
20.150000             9.929451E-03  
20.170000             9.940504E-03  
20.190000             9.951559E-03  
20.210000             9.966124E-03  
20.230000             9.984202E-03  
20.250000             9.998771E-03  
20.270000             1.001334E-02  
20.290000             1.002089E-02  
20.310000             1.002844E-02  
20.330000             1.003599E-02  
20.350000             1.004003E-02  
20.370000             1.004407E-02  
20.390000             1.003407E-02  
20.410000             1.004162E-02  
20.430000             1.005620E-02  
20.450000             1.006375E-02  
20.470000             1.006428E-02  
20.490000             1.006833E-02  
20.510000             1.006886E-02  
20.530000             1.009047E-02  
20.550000             1.008749E-02  
20.570000             1.008802E-02  
20.590000             1.008504E-02  
20.610000             1.009260E-02  
20.630000             1.008962E-02  
20.650000             1.007257E-02  
20.670000             1.006608E-02  
20.690000             1.006309E-02  
20.710000             1.006011E-02  
20.730000             1.005712E-02  
20.750000             1.005765E-02  
20.770000             1.005115E-02  
20.790000             1.004465E-02  
20.810000             1.003463E-02  
20.830000             1.003165E-02  
20.850000             1.000756E-02  
20.870000             9.997538E-03  
20.890000             9.980482E-03  
20.910000             9.991559E-03  
20.930000             9.978018E-03  
20.950000             9.960958E-03  
20.970000             9.947414E-03  
20.990000             9.926833E-03  
21.010000             9.899214E-03  
21.030000             9.878628E-03  
21.050000             9.854522E-03  
21.070000             9.819858E-03  
21.090000             9.795746E-03  
21.110000             9.782188E-03  
21.130000             9.761591E-03  
21.150000             9.737472E-03  
21.170000             9.709831E-03  
21.190000             9.685707E-03  
21.210000             9.661581E-03  
21.230000             9.633932E-03  
21.250000             9.620360E-03  
21.270000             9.606787E-03  
21.290000             9.586172E-03  
21.310000             9.579637E-03  
21.330000             9.569580E-03  
21.350000             9.556002E-03  
21.370000             9.538900E-03  
21.390000             9.528840E-03  
21.410000             9.522300E-03  
21.430000             9.508716E-03  
21.450000             9.495131E-03  
21.470000             9.495633E-03  
21.490000             9.489090E-03  
21.510000             9.489591E-03  
21.530000             9.476002E-03  
21.550000             9.465934E-03  
21.570000             9.466434E-03  
21.590000             9.463411E-03  
21.610000             9.463911E-03  
21.630000             9.478506E-03  
21.650000             9.479007E-03  
21.670000             9.493604E-03  
21.690000             9.494106E-03  
21.710000             9.484035E-03  
21.730000             9.466913E-03  
21.750000             9.470939E-03  
21.770000             9.457340E-03  
21.790000             9.443739E-03  
21.810000             9.440714E-03  
21.830000             9.441213E-03  
21.850000             9.431135E-03  
21.870000             9.421056E-03  
21.890000             9.418029E-03  
21.910000             9.415001E-03  
21.930000             9.401393E-03  
21.950000             9.391310E-03  
21.970000             9.391807E-03  
21.990000             9.388777E-03  
22.010000             9.385747E-03  
22.030000             9.372134E-03  
22.050000             9.376157E-03  
22.070000             9.362543E-03  
22.090000             9.352455E-03  
22.110000             9.342365E-03  
22.130000             9.332275E-03  
22.150000             9.325712E-03  
22.170000             9.319148E-03  
22.190000             9.319641E-03  
22.210000             9.313077E-03  
22.230000             9.299453E-03  
22.250000             9.282298E-03  
22.270000             9.279260E-03  
22.290000             9.265632E-03  
22.310000             9.241413E-03  
22.330000             9.227782E-03  
22.350000             9.221210E-03  
22.370000             9.211107E-03  
22.390000             9.197472E-03  
22.410000             9.180305E-03  
22.430000             9.166667E-03  
22.450000             9.163621E-03  
22.470000             9.153512E-03  
22.490000             9.139870E-03  
22.510000             9.108568E-03  
22.530000             9.077263E-03  
22.550000             9.060083E-03  
22.570000             9.049966E-03  
22.590000             9.018652E-03  
22.610000             8.994401E-03  
22.630000             8.977213E-03  
22.650000             8.960023E-03  
22.670000             8.935764E-03  
22.690000             8.925637E-03  
22.710000             8.890774E-03  
22.730000             8.870042E-03  
22.750000             8.842239E-03  
22.770000             8.817968E-03  
22.790000             8.779557E-03  
22.810000             8.741141E-03  
22.830000             8.706257E-03  
22.850000             8.674903E-03  
22.870000             8.650617E-03  
22.890000             8.612186E-03  
22.910000             8.573752E-03  
22.930000             8.538849E-03  
22.950000             8.507479E-03  
22.970000             8.476105E-03  
22.990000             8.437655E-03  
23.010000             8.395664E-03  
23.030000             8.350133E-03  
23.050000             8.308133E-03  
23.070000             8.280277E-03  
23.090000             8.255956E-03  
23.110000             8.231632E-03  
23.130000             8.203768E-03  
23.150000             8.175900E-03  
23.170000             8.148030E-03  
23.190000             8.127233E-03  
23.210000             8.095819E-03  
23.230000             8.075018E-03  
23.250000             8.050675E-03  
23.270000             8.026330E-03  
23.290000             8.005521E-03  
23.310000             7.970553E-03  
23.330000             7.942660E-03  
23.350000             7.914764E-03  
23.370000             7.890405E-03  
23.390000             7.869584E-03  
23.410000             7.852300E-03  
23.430000             7.838555E-03  
23.450000             7.824809E-03  
23.470000             7.803980E-03  
23.490000             7.793771E-03  
23.510000             7.776479E-03  
23.530000             7.755644E-03  
23.550000             7.731265E-03  
23.570000             7.713967E-03  
23.590000             7.696667E-03  
23.610000             7.675823E-03  
23.630000             7.665604E-03  
23.650000             7.651841E-03  
23.670000             7.627449E-03  
23.690000             7.606597E-03  
23.710000             7.585743E-03  
23.730000             7.564886E-03  
23.750000             7.544027E-03  
23.770000             7.530254E-03  
23.790000             7.505847E-03  
23.810000             7.481438E-03  
23.830000             7.449938E-03  
23.850000             7.429068E-03  
23.870000             7.394017E-03  
23.890000             7.358962E-03  
23.910000             7.334539E-03  
23.930000             7.303022E-03  
23.950000             7.282139E-03  
23.970000             7.257707E-03  
23.990000             7.226182E-03  
24.010000             7.201745E-03  
24.030000             7.170213E-03  
24.050000             7.145770E-03  
24.070000             7.131964E-03  
24.090000             7.111064E-03  
24.110000             7.086614E-03  
24.130000             7.065709E-03  
24.150000             7.048349E-03  
24.170000             7.027439E-03  
24.190000             7.020718E-03  
24.210000             6.992709E-03  
24.230000             6.993081E-03  
24.250000             6.982809E-03  
24.270000             6.968987E-03  
24.290000             6.955164E-03  
24.310000             6.944888E-03  
24.330000             6.923964E-03  
24.350000             6.910136E-03  
24.370000             6.892758E-03  
24.390000             6.875377E-03  
24.410000             6.854445E-03  
24.430000             6.837061E-03  
24.450000             6.816124E-03  
24.470000             6.795186E-03  
24.490000             6.777796E-03  
24.510000             6.774606E-03  
24.530000             6.760763E-03  
24.550000             6.736266E-03  
24.570000             6.725972E-03  
24.590000             6.701470E-03  
24.610000             6.691173E-03  
24.630000             6.677322E-03  
24.650000             6.656366E-03  
24.670000             6.638960E-03  
24.690000             6.621552E-03  
24.710000             6.607695E-03  
24.730000             6.597389E-03  
24.750000             6.583529E-03  
24.770000             6.573220E-03  
24.790000             6.562911E-03  
24.810000             6.552600E-03  
24.830000             6.542289E-03  
24.850000             6.531976E-03  
24.870000             6.525216E-03  
24.890000             6.514901E-03  
24.910000             6.508140E-03  
24.930000             6.497823E-03  
24.950000             6.491060E-03  
24.970000             6.477186E-03  
24.990000             6.473976E-03  
25.010000             6.470766E-03  
25.030000             6.471111E-03  
25.050000             6.475012E-03  
25.070000             6.486025E-03  
25.090000             6.489927E-03  
25.110000             6.493830E-03  
25.130000             6.501289E-03  
25.150000             6.501636E-03  
25.170000             6.501983E-03  
25.190000             6.495216E-03  
25.210000             6.484891E-03  
25.230000             6.478122E-03  
25.250000             6.467794E-03  
25.270000             6.464582E-03  
25.290000             6.461369E-03  
25.310000             6.451039E-03  
25.330000             6.447825E-03  
25.350000             6.444611E-03  
25.370000             6.444955E-03  
25.390000             6.441740E-03  
25.410000             6.438524E-03  
25.430000             6.445987E-03  
25.450000             6.457010E-03  
25.470000             6.482273E-03  
25.490000             6.496858E-03  
25.510000             6.511446E-03  
25.530000             6.526035E-03  
25.550000             6.529944E-03  
25.570000             6.540975E-03  
25.590000             6.559128E-03  
25.610000             6.570162E-03  
25.630000             6.577635E-03  
25.650000             6.595794E-03  
25.670000             6.603270E-03  
25.690000             6.614308E-03  
25.710000             6.611099E-03  
25.730000             6.615015E-03  
25.750000             6.615368E-03  
25.770000             6.622847E-03  
25.790000             6.630326E-03  
25.810000             6.627118E-03  
25.830000             6.620346E-03  
25.850000             6.613573E-03  
25.870000             6.613926E-03  
25.890000             6.617844E-03  
25.910000             6.614633E-03  
25.930000             6.614987E-03  
25.950000             6.618905E-03  
25.970000             6.615694E-03  
25.990000             6.616048E-03  
26.010000             6.612837E-03  
26.030000             6.602496E-03  
26.050000             6.595718E-03  
26.070000             6.596071E-03  
26.090000             6.589292E-03  
26.110000             6.607474E-03  
26.130000             6.597129E-03  
26.150000             6.601048E-03  
26.170000             6.594269E-03  
26.190000             6.591055E-03  
26.210000             6.594974E-03  
26.230000             6.595327E-03  
26.250000             6.602814E-03  
26.270000             6.596033E-03  
26.290000             6.607089E-03  
26.310000             6.618145E-03  
26.330000             6.611364E-03  
26.350000             6.615286E-03  
26.370000             6.619208E-03  
26.390000             6.615994E-03  
26.410000             6.623486E-03  
26.430000             6.627409E-03  
26.450000             6.631333E-03  
26.470000             6.638826E-03  
26.490000             6.639182E-03  
26.510000             6.643107E-03  
26.530000             6.643463E-03  
26.550000             6.654529E-03  
26.570000             6.647745E-03  
26.590000             6.648101E-03  
26.610000             6.644886E-03  
26.630000             6.641671E-03  
26.650000             6.652740E-03  
26.670000             6.663810E-03  
26.690000             6.674881E-03  
26.710000             6.678810E-03  
26.730000             6.682740E-03  
26.750000             6.690241E-03  
26.770000             6.697744E-03  
26.790000             6.715965E-03  
26.810000             6.723470E-03  
26.830000             6.730975E-03  
26.850000             6.752773E-03  
26.870000             6.771001E-03  
26.890000             6.789230E-03  
26.910000             6.814608E-03  
26.930000             6.832842E-03  
26.950000             6.851078E-03  
26.970000             6.862167E-03  
26.990000             6.880406E-03  
27.010000             6.887924E-03  
27.030000             6.895442E-03  
27.050000             6.906537E-03  
27.070000             6.899757E-03  
27.090000             6.900127E-03  
27.110000             6.907648E-03  
27.130000             6.904443E-03  
27.150000             6.915540E-03  
27.170000             6.919487E-03  
27.190000             6.930587E-03  
27.210000             6.927382E-03  
27.230000             6.927754E-03  
27.250000             6.931702E-03  
27.270000             6.939228E-03  
27.290000             6.928869E-03  
27.310000             6.918509E-03  
27.330000             6.908148E-03  
27.350000             6.904941E-03  
27.370000             6.898156E-03  
27.390000             6.898526E-03  
27.410000             6.891740E-03  
27.430000             6.888531E-03  
27.450000             6.906794E-03  
27.470000             6.910744E-03  
27.490000             6.925431E-03  
27.510000             6.929382E-03  
27.530000             6.922595E-03  
27.550000             6.922967E-03  
27.570000             6.926918E-03  
27.590000             6.923710E-03  
27.610000             6.927662E-03  
27.630000             6.920874E-03  
27.650000             6.924826E-03  
27.670000             6.932359E-03  
27.690000             6.936313E-03  
27.710000             6.943848E-03  
27.730000             6.951383E-03  
27.750000             6.958920E-03  
27.770000             6.970039E-03  
27.790000             6.988323E-03  
27.810000             6.988698E-03  
27.830000             7.003403E-03  
27.850000             7.021692E-03  
27.870000             7.036400E-03  
27.890000             7.051110E-03  
27.910000             7.065821E-03  
27.930000             7.080534E-03  
27.950000             7.091665E-03  
27.970000             7.106381E-03  
27.990000             7.117514E-03  
28.010000             7.128649E-03  
28.030000             7.139785E-03  
28.050000             7.158091E-03  
28.070000             7.169230E-03  
28.090000             7.183954E-03  
28.110000             7.205851E-03  
28.130000             7.227749E-03  
28.150000             7.235309E-03  
28.170000             7.242869E-03  
28.190000             7.254016E-03  
28.210000             7.261578E-03  
28.230000             7.276313E-03  
28.250000             7.294637E-03  
28.270000             7.305789E-03  
28.290000             7.309768E-03  
28.310000             7.320923E-03  
28.330000             7.328491E-03  
28.350000             7.346822E-03  
28.370000             7.361567E-03  
28.390000             7.369139E-03  
28.410000             7.380299E-03  
28.430000             7.391460E-03  
28.450000             7.409800E-03  
28.470000             7.428141E-03  
28.490000             7.435718E-03  
28.510000             7.443296E-03  
28.530000             7.461642E-03  
28.550000             7.483579E-03  
28.570000             7.494750E-03  
28.590000             7.513102E-03  
28.610000             7.542225E-03  
28.630000             7.567762E-03  
28.650000             7.593301E-03  
28.670000             7.615252E-03  
28.690000             7.633615E-03  
28.710000             7.655571E-03  
28.730000             7.670347E-03  
28.750000             7.685125E-03  
28.770000             7.703496E-03  
28.790000             7.729052E-03  
28.810000             7.751019E-03  
28.830000             7.769397E-03  
28.850000             7.798552E-03  
28.870000             7.816934E-03  
28.890000             7.831726E-03  
28.910000             7.857297E-03  
28.930000             7.875685E-03  
28.950000             7.890482E-03  
28.970000             7.901687E-03  
28.990000             7.923674E-03  
29.010000             7.938476E-03  
29.030000             7.953279E-03  
29.050000             7.968085E-03  
29.070000             7.982891E-03  
29.090000             7.997700E-03  
29.110000             8.008915E-03  
29.130000             8.027321E-03  
29.150000             8.038539E-03  
29.170000             8.049758E-03  
29.190000             8.068170E-03  
29.210000             8.079392E-03  
29.230000             8.079827E-03  
29.250000             8.091051E-03  
29.270000             8.102276E-03  
29.290000             8.109906E-03  
29.310000             8.131923E-03  
29.330000             8.146749E-03  
29.350000             8.154383E-03  
29.370000             8.172809E-03  
29.390000             8.184042E-03  
29.410000             8.195276E-03  
29.430000             8.210110E-03  
29.450000             8.210553E-03  
29.470000             8.218192E-03  
29.490000             8.233029E-03  
29.510000             8.240671E-03  
29.530000             8.259109E-03  
29.550000             8.259555E-03  
29.570000             8.274398E-03  
29.590000             8.282043E-03  
29.610000             8.304087E-03  
29.630000             8.318934E-03  
29.650000             8.340983E-03  
29.670000             8.352234E-03  
29.690000             8.359886E-03  
29.710000             8.378339E-03  
29.730000             8.378792E-03  
29.750000             8.386446E-03  
29.770000             8.408506E-03  
29.790000             8.430568E-03  
29.810000             8.445429E-03  
29.830000             8.445885E-03  
29.850000             8.449943E-03  
29.870000             8.454002E-03  
29.890000             8.461663E-03  
29.910000             8.469325E-03  
29.930000             8.484193E-03  
29.950000             8.491858E-03  
29.970000             8.503126E-03  
29.990000             8.517998E-03  
30.010000             8.525665E-03  
30.030000             8.526126E-03  
30.050000             8.541002E-03  
30.070000             8.555880E-03  
30.090000             8.563551E-03  
30.110000             8.582036E-03  
30.130000             8.596918E-03  
30.150000             8.615407E-03  
30.170000             8.637502E-03  
30.190000             8.648785E-03  
30.210000             8.667280E-03  
30.230000             8.682171E-03  
30.250000             8.704275E-03  
30.270000             8.708351E-03  
30.290000             8.723247E-03  
30.310000             8.730932E-03  
30.330000             8.749436E-03  
30.350000             8.757123E-03  
30.370000             8.775632E-03  
30.390000             8.783321E-03  
30.410000             8.791011E-03  
30.430000             8.802309E-03  
30.450000             8.813608E-03  
30.470000             8.817693E-03  
30.490000             8.821778E-03  
30.510000             8.822256E-03  
30.530000             8.829950E-03  
30.550000             8.834037E-03  
30.570000             8.838124E-03  
30.590000             8.838603E-03  
30.610000             8.839081E-03  
30.630000             8.839560E-03  
30.650000             8.847258E-03  
30.670000             8.844127E-03  
30.690000             8.844606E-03  
30.710000             8.841474E-03  
30.730000             8.845564E-03  
30.750000             8.860485E-03  
30.770000             8.860965E-03  
30.790000             8.868667E-03  
30.810000             8.872759E-03  
30.830000             8.866017E-03  
30.850000             8.870109E-03  
30.870000             8.870589E-03  
30.890000             8.863846E-03  
30.910000             8.857102E-03  
30.930000             8.868419E-03  
30.950000             8.868899E-03  
30.970000             8.872993E-03  
30.990000             8.877086E-03  
31.010000             8.884794E-03  
31.030000             8.881662E-03  
31.050000             8.889371E-03  
31.070000             8.889853E-03  
31.090000             8.890334E-03  
31.110000             8.887202E-03  
31.130000             8.898527E-03  
31.150000             8.902624E-03  
31.170000             8.910336E-03  
31.190000             8.918049E-03  
31.210000             8.925763E-03  
31.230000             8.922632E-03  
31.250000             8.923116E-03  
31.270000             8.934447E-03  
31.290000             8.938547E-03  
31.310000             8.935416E-03  
31.330000             8.946750E-03  
31.350000             8.947235E-03  
31.370000             8.940487E-03  
31.390000             8.937355E-03  
31.410000             8.926989E-03  
31.430000             8.905770E-03  
31.450000             8.895400E-03  
31.470000             8.881412E-03  
31.490000             8.867423E-03  
31.510000             8.853432E-03  
31.530000             8.835821E-03  
31.550000             8.829064E-03  
31.570000             8.818687E-03  
31.590000             8.804690E-03  
31.610000             8.787073E-03  
31.630000             8.765834E-03  
31.650000             8.751832E-03  
31.670000             8.734209E-03  
31.690000             8.702105E-03  
31.710000             8.680857E-03  
31.730000             8.659607E-03  
31.750000             8.641975E-03  
31.770000             8.620721E-03  
31.790000             8.595843E-03  
31.810000             8.574584E-03  
31.830000             8.549701E-03  
31.850000             8.521194E-03  
31.870000             8.503549E-03  
31.890000             8.478658E-03  
31.910000             8.446521E-03  
31.930000             8.428869E-03  
31.950000             8.403970E-03  
31.970000             8.386314E-03  
31.990000             8.375901E-03  
32.010000             8.358241E-03  
32.030000             8.347826E-03  
32.050000             8.337410E-03  
32.070000             8.323368E-03  
32.090000             8.309326E-03  
32.110000             8.309777E-03  
32.130000             8.299357E-03  
32.150000             8.292559E-03  
32.170000             8.293010E-03  
32.190000             8.286211E-03  
32.210000             8.290287E-03  
32.230000             8.290738E-03  
32.250000             8.283938E-03  
32.270000             8.273512E-03  
32.290000             8.259459E-03  
32.310000             8.256282E-03  
32.330000             8.249479E-03  
32.350000             8.246301E-03  
32.370000             8.246750E-03  
32.390000             8.247198E-03  
32.410000             8.251274E-03  
32.430000             8.248096E-03  
32.450000             8.248545E-03  
32.470000             8.252621E-03  
32.490000             8.253070E-03  
32.510000             8.257147E-03  
32.530000             8.268481E-03  
32.550000             8.279816E-03  
32.570000             8.276638E-03  
32.590000             8.280717E-03  
32.610000             8.292055E-03  
32.630000             8.292506E-03  
32.650000             8.303845E-03  
32.670000             8.307927E-03  
32.690000             8.312009E-03  
32.710000             8.319721E-03  
32.730000             8.327434E-03  
32.750000             8.324258E-03  
32.770000             8.321080E-03  
32.790000             8.317903E-03  
32.810000             8.314725E-03  
32.830000             8.304285E-03  
32.850000             8.308368E-03  
32.870000             8.297926E-03  
32.890000             8.280220E-03  
32.910000             8.266144E-03  
32.930000             8.248434E-03  
32.950000             8.245251E-03  
32.970000             8.231170E-03  
32.990000             8.231619E-03  
33.010000             8.221169E-03  
33.030000             8.214351E-03  
33.050000             8.196632E-03  
33.070000             8.182545E-03  
33.090000             8.182991E-03  
33.110000             8.168901E-03  
33.130000             8.147542E-03  
33.150000             8.140718E-03  
33.170000             8.119355E-03  
33.190000             8.101625E-03  
33.210000             8.091162E-03  
33.230000             8.073428E-03  
33.250000             8.059327E-03  
33.270000             8.041589E-03  
33.290000             8.023850E-03  
33.310000             8.020652E-03  
33.330000             8.006545E-03  
33.350000             7.985164E-03  
33.370000             7.960145E-03  
33.390000             7.946032E-03  
33.410000             7.921008E-03  
33.430000             7.899618E-03  
33.450000             7.881863E-03  
33.470000             7.856831E-03  
33.490000             7.846347E-03  
33.510000             7.828586E-03  
33.530000             7.803547E-03  
33.550000             7.782144E-03  
33.570000             7.771653E-03  
33.590000             7.750246E-03  
33.610000             7.728836E-03  
33.630000             7.721980E-03  
33.650000             7.704205E-03  
33.670000             7.697347E-03  
33.690000             7.686848E-03  
33.710000             7.669069E-03  
33.730000             7.654928E-03  
33.750000             7.640785E-03  
33.770000             7.630281E-03  
33.790000             7.616135E-03  
33.810000             7.616551E-03  
33.830000             7.602403E-03  
33.850000             7.595536E-03  
33.870000             7.581385E-03  
33.890000             7.570875E-03  
33.910000             7.556721E-03  
33.930000             7.549850E-03  
33.950000             7.542978E-03  
33.970000             7.528820E-03  
33.990000             7.521947E-03  
34.010000             7.507786E-03  
34.030000             7.500911E-03  
34.050000             7.494034E-03  
34.070000             7.483514E-03  
34.090000             7.472992E-03  
34.110000             7.458825E-03  
34.130000             7.437369E-03  
34.150000             7.426843E-03  
34.170000             7.409027E-03  
34.190000             7.398498E-03  
34.210000             7.380679E-03  
34.230000             7.366503E-03  
34.250000             7.337744E-03  
34.270000             7.323564E-03  
34.290000             7.305736E-03  
34.310000             7.284261E-03  
34.330000             7.262784E-03  
34.350000             7.252242E-03  
34.370000             7.238054E-03  
34.390000             7.220217E-03  
34.410000             7.206024E-03  
34.430000             7.195478E-03  
34.450000             7.177636E-03  
34.470000             7.156144E-03  
34.490000             7.134650E-03  
34.510000             7.124097E-03  
34.530000             7.106247E-03  
34.550000             7.084747E-03  
34.570000             7.077838E-03  
34.590000             7.056334E-03  
34.610000             7.031179E-03  
34.630000             7.013319E-03  
34.650000             6.988158E-03  
34.670000             6.977593E-03  
34.690000             6.959727E-03  
34.710000             6.956458E-03  
34.730000             6.938589E-03  
34.750000             6.928019E-03  
34.770000             6.906496E-03  
34.790000             6.888621E-03  
34.810000             6.881697E-03  
34.830000             6.860168E-03  
34.850000             6.845939E-03  
34.870000             6.831708E-03  
34.890000             6.813825E-03  
34.910000             6.799591E-03  
34.930000             6.789008E-03  
34.950000             6.774771E-03  
34.970000             6.764185E-03  
34.990000             6.753598E-03  
35.010000             6.735704E-03  
35.030000             6.714155E-03  
35.050000             6.699910E-03  
35.070000             6.674704E-03  
35.090000             6.653148E-03  
35.110000             6.635244E-03  
35.130000             6.617338E-03  
35.150000             6.599430E-03  
35.170000             6.577865E-03  
35.190000             6.556299E-03  
35.210000             6.538384E-03  
35.230000             6.513158E-03  
35.250000             6.487929E-03  
35.270000             6.462697E-03  
35.290000             6.437462E-03  
35.310000             6.415881E-03  
35.330000             6.405265E-03  
35.350000             6.401960E-03  
35.370000             6.398654E-03  
35.390000             6.377066E-03  
35.410000             6.359132E-03  
35.430000             6.337539E-03  
35.450000             6.315943E-03  
35.470000             6.301660E-03  
35.490000             6.287376E-03  
35.510000             6.276748E-03  
35.530000             6.258802E-03  
35.550000             6.237196E-03  
35.570000             6.222905E-03  
35.590000             6.197637E-03  
35.610000             6.179683E-03  
35.630000             6.169045E-03  
35.650000             6.140110E-03  
35.670000             6.122150E-03  
35.690000             6.100529E-03  
35.710000             6.086225E-03  
35.730000             6.071919E-03  
35.750000             6.046631E-03  
35.770000             6.032321E-03  
35.790000             6.014350E-03  
35.810000             5.996376E-03  
35.830000             5.978400E-03  
35.850000             5.967745E-03  
35.870000             5.949766E-03  
35.890000             5.928123E-03  
35.910000             5.917463E-03  
35.930000             5.906802E-03  
35.950000             5.899802E-03  
35.970000             5.881814E-03  
35.990000             5.863824E-03  
36.010000             5.845833E-03  
36.030000             5.831502E-03  
36.050000             5.820833E-03  
36.070000             5.813826E-03  
36.090000             5.810482E-03  
36.110000             5.810801E-03  
36.130000             5.807456E-03  
36.150000             5.796783E-03  
36.170000             5.786108E-03  
36.190000             5.782762E-03  
36.210000             5.768420E-03  
36.230000             5.757742E-03  
36.250000             5.747063E-03  
36.270000             5.743714E-03  
36.290000             5.729367E-03  
36.310000             5.722351E-03  
36.330000             5.715333E-03  
36.350000             5.708315E-03  
36.370000             5.701296E-03  
36.390000             5.686943E-03  
36.410000             5.679922E-03  
36.430000             5.672901E-03  
36.450000             5.665878E-03  
36.470000             5.658855E-03  
36.490000             5.655499E-03  
36.510000             5.648474E-03  
36.530000             5.637781E-03  
36.550000             5.630755E-03  
36.570000             5.616391E-03  
36.590000             5.609362E-03  
36.610000             5.602333E-03  
36.630000             5.595304E-03  
36.650000             5.591942E-03  
36.670000             5.592250E-03  
36.690000             5.581549E-03  
36.710000             5.567177E-03  
36.730000             5.560143E-03  
36.750000             5.553109E-03  
36.770000             5.549744E-03  
36.790000             5.542708E-03  
36.810000             5.554026E-03  
36.830000             5.554332E-03  
36.850000             5.550966E-03  
36.870000             5.551272E-03  
36.890000             5.547906E-03  
36.910000             5.548212E-03  
36.930000             5.548517E-03  
36.950000             5.559840E-03  
36.970000             5.563819E-03  
36.990000             5.571471E-03  
37.010000             5.571777E-03  
37.030000             5.579431E-03  
37.050000             5.590758E-03  
37.070000             5.594740E-03  
37.090000             5.602395E-03  
37.110000             5.613726E-03  
37.130000             5.625057E-03  
37.150000             5.640065E-03  
37.170000             5.655074E-03  
37.190000             5.677434E-03  
37.210000             5.688771E-03  
37.230000             5.703785E-03  
37.250000             5.722476E-03  
37.270000             5.737494E-03  
37.290000             5.748838E-03  
37.310000             5.760182E-03  
37.330000             5.767852E-03  
37.350000             5.782876E-03  
37.370000             5.794224E-03  
37.390000             5.801897E-03  
37.410000             5.816925E-03  
37.430000             5.831954E-03  
37.450000             5.846985E-03  
37.470000             5.865696E-03  
37.490000             5.877053E-03  
37.510000             5.888411E-03  
37.530000             5.899770E-03  
37.550000             5.907452E-03  
37.570000             5.918814E-03  
37.590000             5.930177E-03  
37.610000             5.934183E-03  
37.630000             5.941869E-03  
37.650000             5.949556E-03  
37.670000             5.957243E-03  
37.690000             5.961252E-03  
37.710000             5.961581E-03  
37.730000             5.965590E-03  
37.750000             5.969600E-03  
37.770000             5.980971E-03  
37.790000             5.984982E-03  
37.810000             5.992675E-03  
37.830000             5.993006E-03  
37.850000             5.993337E-03  
37.870000             6.001031E-03  
37.890000             6.001362E-03  
37.910000             6.001694E-03  
37.930000             5.998343E-03  
37.950000             5.998674E-03  
37.970000             5.995323E-03  
37.990000             5.991971E-03  
38.010000             5.995985E-03  
38.030000             5.992634E-03  
38.050000             5.989281E-03  
38.070000             5.989612E-03  
38.090000             5.975208E-03  
38.110000             5.968170E-03  
38.130000             5.968500E-03  
38.150000             5.965145E-03  
38.170000             5.961790E-03  
38.190000             5.958435E-03  
38.210000             5.951394E-03  
38.230000             5.944352E-03  
38.250000             5.937310E-03  
38.270000             5.933953E-03  
38.290000             5.930595E-03  
38.310000             5.930923E-03  
38.330000             5.927564E-03  
38.350000             5.927892E-03  
38.370000             5.924533E-03  
38.390000             5.917487E-03  
38.410000             5.910440E-03  
38.430000             5.903392E-03  
38.450000             5.900031E-03  
38.470000             5.896670E-03  
38.490000             5.893308E-03  
38.510000             5.889946E-03  
38.530000             5.893960E-03  
38.550000             5.894286E-03  
38.570000             5.890924E-03  
38.590000             5.891250E-03  
38.610000             5.884198E-03  
38.630000             5.873455E-03  
38.650000             5.862711E-03  
38.670000             5.851967E-03  
38.690000             5.841221E-03  
38.710000             5.834164E-03  
38.730000             5.827106E-03  
38.750000             5.816357E-03  
38.770000             5.805606E-03  
38.790000             5.805928E-03  
38.810000             5.802558E-03  
38.830000             5.799188E-03  
38.850000             5.788434E-03  
38.870000             5.788755E-03  
38.890000             5.789075E-03  
38.910000             5.789396E-03  
38.930000             5.793409E-03  
38.950000             5.793730E-03  
38.970000             5.797744E-03  
38.990000             5.798065E-03  
39.010000             5.798386E-03  
39.030000             5.802401E-03  
39.050000             5.806416E-03  
39.070000             5.810431E-03  
39.090000             5.818142E-03  
39.110000             5.822158E-03  
39.130000             5.829870E-03  
39.150000             5.837582E-03  
39.170000             5.841601E-03  
39.190000             5.849315E-03  
39.210000             5.857029E-03  
39.230000             5.868441E-03  
39.250000             5.876157E-03  
39.270000             5.883875E-03  
39.290000             5.887897E-03  
39.310000             5.888224E-03  
39.330000             5.895943E-03  
39.350000             5.899967E-03  
39.370000             5.903991E-03  
39.390000             5.908015E-03  
39.410000             5.915738E-03  
39.430000             5.923461E-03  
39.450000             5.931185E-03  
39.470000             5.942608E-03  
39.490000             5.946636E-03  
39.510000             5.950664E-03  
39.530000             5.954693E-03  
39.550000             5.969818E-03  
39.570000             5.981246E-03  
39.590000             5.985277E-03  
39.610000             5.989309E-03  
39.630000             5.997040E-03  
39.650000             6.008473E-03  
39.670000             6.019906E-03  
39.690000             6.023940E-03  
39.710000             6.035376E-03  
39.730000             6.043112E-03  
39.750000             6.039747E-03  
39.770000             6.036381E-03  
39.790000             6.033015E-03  
39.810000             6.033350E-03  
39.830000             6.026282E-03  
39.850000             6.019213E-03  
39.870000             6.012143E-03  
39.890000             6.005072E-03  
39.910000             5.994298E-03  
39.930000             5.983523E-03  
39.950000             5.972747E-03  
39.970000             5.961969E-03  
39.990000             5.951191E-03  
40.010000             5.936707E-03  
40.030000             5.922222E-03  
40.050000             5.907736E-03  
40.070000             5.896952E-03  
40.090000             5.882462E-03  
40.110000             5.867971E-03  
40.130000             5.857183E-03  
40.150000             5.846393E-03  
40.170000             5.839308E-03  
40.190000             5.832222E-03  
40.210000             5.825135E-03  
40.230000             5.818047E-03  
40.250000             5.810959E-03  
40.270000             5.803869E-03  
40.290000             5.800486E-03  
40.310000             5.789688E-03  
40.330000             5.786303E-03  
40.350000             5.764383E-03  
40.370000             5.760996E-03  
40.390000             5.746487E-03  
40.410000             5.739392E-03  
40.430000             5.728587E-03  
40.450000             5.710366E-03  
40.470000             5.699559E-03  
40.490000             5.688750E-03  
40.510000             5.681650E-03  
40.530000             5.678257E-03  
40.550000             5.671155E-03  
40.570000             5.667761E-03  
40.590000             5.668076E-03  
40.610000             5.668392E-03  
40.630000             5.664997E-03  
40.650000             5.665312E-03  
40.670000             5.665628E-03  
40.690000             5.662233E-03  
40.710000             5.658837E-03  
40.730000             5.659152E-03  
40.750000             5.659467E-03  
40.770000             5.659782E-03  
40.790000             5.660097E-03  
40.810000             5.664124E-03  
40.830000             5.660728E-03  
40.850000             5.661043E-03  
40.870000             5.661358E-03  
40.890000             5.661673E-03  
40.910000             5.658276E-03  
40.930000             5.654878E-03  
40.950000             5.651480E-03  
40.970000             5.648081E-03  
40.990000             5.648396E-03  
41.010000             5.648710E-03  
41.030000             5.656453E-03  
41.050000             5.660482E-03  
41.070000             5.657083E-03  
41.090000             5.661113E-03  
41.110000             5.665144E-03  
41.130000             5.665459E-03  
41.150000             5.665775E-03  
41.170000             5.666091E-03  
41.190000             5.666407E-03  
41.210000             5.666722E-03  
41.230000             5.663322E-03  
41.250000             5.667354E-03  
41.270000             5.678820E-03  
41.290000             5.671703E-03  
41.310000             5.675736E-03  
41.330000             5.679770E-03  
41.350000             5.694956E-03  
41.370000             5.698991E-03  
41.390000             5.703026E-03  
41.410000             5.707062E-03  
41.430000             5.707381E-03  
41.450000             5.711417E-03  
41.470000             5.715454E-03  
41.490000             5.715773E-03  
41.510000             5.719811E-03  
41.530000             5.727569E-03  
41.550000             5.735327E-03  
41.570000             5.743086E-03  
41.590000             5.750846E-03  
41.610000             5.754887E-03  
41.630000             5.758929E-03  
41.650000             5.759250E-03  
41.670000             5.774454E-03  
41.690000             5.782218E-03  
41.710000             5.786262E-03  
41.730000             5.794027E-03  
41.750000             5.794351E-03  
41.770000             5.798396E-03  
41.790000             5.802442E-03  
41.810000             5.806488E-03  
41.830000             5.810534E-03  
41.850000             5.818304E-03  
41.870000             5.826074E-03  
41.890000             5.833845E-03  
41.910000             5.849064E-03  
41.930000             5.856837E-03  
41.950000             5.868335E-03  
41.970000             5.872386E-03  
41.990000             5.880162E-03  
42.010000             5.887939E-03  
42.030000             5.903166E-03  
42.050000             5.907220E-03  
42.070000             5.918725E-03  
42.090000             5.930230E-03  
42.110000             5.941737E-03  
42.130000             5.949520E-03  
42.150000             5.968481E-03  
42.170000             5.983718E-03  
42.190000             5.995231E-03  
42.210000             6.003018E-03  
42.230000             6.007080E-03  
42.250000             6.029776E-03  
42.270000             6.033840E-03  
42.290000             6.041632E-03  
42.310000             6.045697E-03  
42.330000             6.057217E-03  
42.350000             6.061284E-03  
42.370000             6.072807E-03  
42.390000             6.084331E-03  
42.410000             6.088399E-03  
42.430000             6.096197E-03  
42.450000             6.107724E-03  
42.470000             6.119253E-03  
42.490000             6.127053E-03  
42.510000             6.134855E-03  
42.530000             6.142657E-03  
42.550000             6.146731E-03  
42.570000             6.147075E-03  
42.590000             6.147419E-03  
42.610000             6.151493E-03  
42.630000             6.159299E-03  
42.650000             6.167105E-03  
42.670000             6.178643E-03  
42.690000             6.190183E-03  
42.710000             6.201724E-03  
42.730000             6.205803E-03  
42.750000             6.213614E-03  
42.770000             6.213962E-03  
42.790000             6.218042E-03  
42.810000             6.222123E-03  
42.830000             6.226204E-03  
42.850000             6.230285E-03  
42.870000             6.230634E-03  
42.890000             6.234717E-03  
42.910000             6.250000E-03  
42.930000             6.257818E-03  
42.950000             6.276838E-03  
42.970000             6.284658E-03  
42.990000             6.288744E-03  
43.010000             6.292831E-03  
43.030000             6.300654E-03  
43.050000             6.308477E-03  
43.070000             6.320036E-03  
43.090000             6.327861E-03  
43.110000             6.339422E-03  
43.130000             6.339778E-03  
43.150000             6.343869E-03  
43.170000             6.351697E-03  
43.190000             6.348317E-03  
43.210000             6.359883E-03  
43.230000             6.360239E-03  
43.250000             6.356859E-03  
43.270000             6.353478E-03  
43.290000             6.353834E-03  
43.310000             6.350452E-03  
43.330000             6.339594E-03  
43.350000             6.336212E-03  
43.370000             6.332829E-03  
43.390000             6.329445E-03  
43.410000             6.322323E-03  
43.430000             6.318938E-03  
43.450000             6.319293E-03  
43.470000             6.319647E-03  
43.490000             6.320001E-03  
43.510000             6.316616E-03  
43.530000             6.305750E-03  
43.550000             6.302364E-03  
43.570000             6.295236E-03  
43.590000             6.291849E-03  
43.610000             6.288461E-03  
43.630000             6.285073E-03  
43.650000             6.281684E-03  
43.670000             6.270812E-03  
43.690000             6.267422E-03  
43.710000             6.264032E-03  
43.730000             6.260642E-03  
43.750000             6.264736E-03  
43.770000             6.261345E-03  
43.790000             6.257953E-03  
43.810000             6.262048E-03  
43.830000             6.247427E-03  
43.850000             6.240290E-03  
43.870000             6.240641E-03  
43.890000             6.248479E-03  
43.910000             6.252574E-03  
43.930000             6.249181E-03  
43.950000             6.245787E-03  
43.970000             6.242394E-03  
43.990000             6.231510E-03  
44.010000             6.228115E-03  
44.030000             6.224719E-03  
44.050000             6.228814E-03  
44.070000             6.229164E-03  
44.090000             6.229514E-03  
44.110000             6.233611E-03  
44.130000             6.237707E-03  
44.150000             6.234311E-03  
44.170000             6.227168E-03  
44.190000             6.220024E-03  
44.210000             6.216626E-03  
44.230000             6.213228E-03  
44.250000             6.198587E-03  
44.270000             6.183944E-03  
44.290000             6.180544E-03  
44.310000             6.173395E-03  
44.330000             6.166245E-03  
44.350000             6.155346E-03  
44.370000             6.140696E-03  
44.390000             6.129794E-03  
44.410000             6.122640E-03  
44.430000             6.111736E-03  
44.450000             6.100831E-03  
44.470000             6.082424E-03  
44.490000             6.079016E-03  
44.510000             6.053105E-03  
44.530000             6.034693E-03  
44.550000             6.016278E-03  
44.570000             6.001613E-03  
44.590000             5.983195E-03  
44.610000             5.961023E-03  
44.630000             5.950103E-03  
44.650000             5.927927E-03  
44.670000             5.917004E-03  
44.690000             5.898576E-03  
44.710000             5.883898E-03  
44.730000             5.869219E-03  
44.750000             5.843279E-03  
44.770000             5.821089E-03  
44.790000             5.806403E-03  
44.810000             5.799223E-03  
44.830000             5.780781E-03  
44.850000             5.766090E-03  
44.870000             5.747644E-03  
44.890000             5.732950E-03  
44.910000             5.714500E-03  
44.930000             5.696048E-03  
44.950000             5.677594E-03  
44.970000             5.659137E-03  
44.990000             5.636924E-03  
45.010000             5.610951E-03  
45.030000             5.592488E-03  
45.050000             5.566511E-03  
45.070000             5.551799E-03  
45.090000             5.533330E-03  
45.110000             5.514858E-03  
45.130000             5.500141E-03  
45.150000             5.474151E-03  
45.170000             5.459430E-03  
45.190000             5.440950E-03  
45.210000             5.414952E-03  
45.230000             5.381436E-03  
45.250000             5.362948E-03  
45.270000             5.340700E-03  
45.290000             5.307173E-03  
45.310000             5.269884E-03  
45.330000             5.228832E-03  
45.350000             5.202812E-03  
45.370000             5.161751E-03  
45.390000             5.131965E-03  
45.410000             5.105935E-03  
45.430000             5.076142E-03  
45.450000             5.042586E-03  
45.470000             5.005265E-03  
45.490000             4.971700E-03  
45.510000             4.926849E-03  
45.530000             4.889516E-03  
45.550000             4.852178E-03  
45.570000             4.814836E-03  
45.590000             4.773728E-03  
45.610000             4.732615E-03  
45.630000             4.702784E-03  
45.650000             4.654138E-03  
45.670000             4.624299E-03  
45.690000             4.590694E-03  
45.710000             4.557086E-03  
45.730000             4.531000E-03  
45.750000             4.508675E-03  
45.770000             4.486347E-03  
45.790000             4.467781E-03  
45.810000             4.434156E-03  
45.830000             4.404291E-03  
45.850000             4.370659E-03  
45.870000             4.344552E-03  
45.890000             4.314678E-03  
45.910000             4.284800E-03  
45.930000             4.251153E-03  
45.950000             4.232565E-03  
45.970000             4.206443E-03  
45.990000             4.180319E-03  
46.010000             4.150425E-03  
46.030000             4.128060E-03  
46.050000             4.109460E-03  
46.070000             4.090858E-03  
46.090000             4.068486E-03  
46.110000             4.046112E-03  
46.130000             4.035038E-03  
46.150000             4.023963E-03  
46.170000             3.994047E-03  
46.190000             3.975431E-03  
46.210000             3.953046E-03  
46.230000             3.926889E-03  
46.250000             3.900729E-03  
46.270000             3.870798E-03  
46.290000             3.848401E-03  
46.310000             3.822232E-03  
46.330000             3.796061E-03  
46.350000             3.781196E-03  
46.370000             3.758789E-03  
46.390000             3.740150E-03  
46.410000             3.729050E-03  
46.430000             3.702866E-03  
46.450000             3.699304E-03  
46.470000             3.703285E-03  
46.490000             3.692180E-03  
46.510000             3.677303E-03  
46.530000             3.666195E-03  
46.550000             3.658859E-03  
46.570000             3.655293E-03  
46.590000             3.644183E-03  
46.610000             3.636844E-03  
46.630000             3.633277E-03  
46.650000             3.622163E-03  
46.670000             3.611048E-03  
46.690000             3.611253E-03  
46.710000             3.596362E-03  
46.730000             3.592792E-03  
46.750000             3.581673E-03  
46.770000             3.578101E-03  
46.790000             3.566980E-03  
46.810000             3.559632E-03  
46.830000             3.544734E-03  
46.850000             3.537384E-03  
46.870000             3.518707E-03  
46.890000             3.503804E-03  
46.910000             3.488899E-03  
46.930000             3.473992E-03  
46.950000             3.459084E-03  
46.970000             3.444174E-03  
46.990000             3.429262E-03  
47.010000             3.403018E-03  
47.030000             3.388102E-03  
47.050000             3.380739E-03  
47.070000             3.362043E-03  
47.090000             3.350900E-03  
47.110000             3.343534E-03  
47.130000             3.328611E-03  
47.150000             3.317464E-03  
47.170000             3.298759E-03  
47.190000             3.276273E-03  
47.210000             3.265121E-03  
47.230000             3.242630E-03  
47.250000             3.227696E-03  
47.270000             3.212760E-03  
47.290000             3.194043E-03  
47.310000             3.171543E-03  
47.330000             3.152821E-03  
47.350000             3.137878E-03  
47.370000             3.130494E-03  
47.390000             3.123109E-03  
47.410000             3.119505E-03  
47.430000             3.112119E-03  
47.450000             3.097169E-03  
47.470000             3.074654E-03  
47.490000             3.055918E-03  
47.510000             3.037180E-03  
47.530000             3.029787E-03  
47.550000             3.014828E-03  
47.570000             3.007433E-03  
47.590000             2.992472E-03  
47.610000             2.966158E-03  
47.630000             2.947408E-03  
47.650000             2.924873E-03  
47.670000             2.909903E-03  
47.690000             2.894931E-03  
47.710000             2.883742E-03  
47.730000             2.868767E-03  
47.750000             2.853791E-03  
47.770000             2.842597E-03  
47.790000             2.823832E-03  
47.810000             2.812636E-03  
47.830000             2.801439E-03  
47.850000             2.786454E-03  
47.870000             2.779040E-03  
47.890000             2.767839E-03  
47.910000             2.752849E-03  
47.930000             2.737859E-03  
47.950000             2.722866E-03  
47.970000             2.707872E-03  
47.990000             2.696663E-03  
48.010000             2.689241E-03  
48.030000             2.678030E-03  
48.050000             2.663030E-03  
48.070000             2.651816E-03  
48.090000             2.636813E-03  
48.110000             2.625597E-03  
48.130000             2.614379E-03  
48.150000             2.599371E-03  
48.170000             2.588151E-03  
48.190000             2.573139E-03  
48.210000             2.569496E-03  
48.230000             2.554482E-03  
48.250000             2.543256E-03  
48.270000             2.539610E-03  
48.290000             2.528383E-03  
48.310000             2.517154E-03  
48.330000             2.505924E-03  
48.350000             2.502275E-03  
48.370000             2.491042E-03  
48.390000             2.476017E-03  
48.410000             2.460990E-03  
48.430000             2.449754E-03  
48.450000             2.442308E-03  
48.470000             2.431069E-03  
48.490000             2.419829E-03  
48.510000             2.408587E-03  
48.530000             2.401138E-03  
48.550000             2.393688E-03  
48.570000             2.386236E-03  
48.590000             2.378784E-03  
48.610000             2.371332E-03  
48.630000             2.371467E-03  
48.650000             2.371601E-03  
48.670000             2.367942E-03  
48.690000             2.364282E-03  
48.710000             2.356826E-03  
48.730000             2.353164E-03  
48.750000             2.345707E-03  
48.770000             2.338249E-03  
48.790000             2.326994E-03  
48.810000             2.319534E-03  
48.830000             2.312073E-03  
48.850000             2.308408E-03  
48.870000             2.308539E-03  
48.890000             2.301076E-03  
48.910000             2.305005E-03  
48.930000             2.305136E-03  
48.950000             2.305268E-03  
48.970000             2.305399E-03  
48.990000             2.305530E-03  
49.010000             2.305662E-03  
49.030000             2.305793E-03  
49.050000             2.302125E-03  
49.070000             2.306056E-03  
49.090000             2.309987E-03  
49.110000             2.310118E-03  
49.130000             2.310250E-03  
49.150000             2.317981E-03  
49.170000             2.321914E-03  
49.190000             2.333447E-03  
49.210000             2.344982E-03  
49.230000             2.360319E-03  
49.250000             2.368056E-03  
49.270000             2.371992E-03  
49.290000             2.391135E-03  
49.310000             2.395073E-03  
49.330000             2.406615E-03  
49.350000             2.410555E-03  
49.370000             2.422099E-03  
49.390000             2.433645E-03  
49.410000             2.445192E-03  
49.430000             2.456741E-03  
49.450000             2.475897E-03  
49.470000             2.487449E-03  
49.490000             2.495198E-03  
49.510000             2.502948E-03  
49.530000             2.510699E-03  
49.550000             2.522255E-03  
49.570000             2.526204E-03  
49.590000             2.541567E-03  
49.610000             2.556932E-03  
49.630000             2.568493E-03  
49.650000             2.576251E-03  
49.670000             2.580203E-03  
49.690000             2.595574E-03  
49.710000             2.603334E-03  
49.730000             2.618708E-03  
49.750000             2.634083E-03  
49.770000             2.649460E-03  
49.790000             2.664839E-03  
49.810000             2.676413E-03  
49.830000             2.687988E-03  
49.850000             2.691949E-03  
49.870000             2.703526E-03  
49.890000             2.715104E-03  
49.910000             2.726684E-03  
49.930000             2.734457E-03  
49.950000             2.746039E-03  
49.970000             2.765240E-03  
49.990000             2.773016E-03  
50.010000             2.780793E-03  
50.030000             2.788571E-03  
50.050000             2.792541E-03  
50.070000             2.796510E-03  
50.090000             2.808100E-03  
50.110000             2.819692E-03  
50.130000             2.831285E-03  
50.150000             2.827636E-03  
50.170000             2.831609E-03  
50.190000             2.835582E-03  
50.210000             2.839556E-03  
50.230000             2.847341E-03  
50.250000             2.847504E-03  
50.270000             2.851479E-03  
50.290000             2.855455E-03  
50.310000             2.863243E-03  
50.330000             2.867220E-03  
50.350000             2.875010E-03  
50.370000             2.875174E-03  
50.390000             2.875338E-03  
50.410000             2.879317E-03  
50.430000             2.879481E-03  
50.450000             2.883460E-03  
50.470000             2.887439E-03  
50.490000             2.899048E-03  
50.510000             2.906844E-03  
50.530000             2.907010E-03  
50.550000             2.918622E-03  
50.570000             2.926420E-03  
50.590000             2.934219E-03  
50.610000             2.949650E-03  
50.630000             2.957451E-03  
50.650000             2.965253E-03  
50.670000             2.976872E-03  
50.690000             2.980859E-03  
50.710000             2.984847E-03  
50.730000             2.988835E-03  
50.750000             2.996641E-03  
50.770000             3.004447E-03  
50.790000             3.004620E-03  
50.810000             3.012428E-03  
50.830000             3.024055E-03  
50.850000             3.031865E-03  
50.870000             3.043495E-03  
50.890000             3.051307E-03  
50.910000             3.059120E-03  
50.930000             3.059295E-03  
50.950000             3.070929E-03  
50.970000             3.078745E-03  
50.990000             3.086561E-03  
51.010000             3.090558E-03  
51.030000             3.098376E-03  
51.050000             3.098554E-03  
51.070000             3.102552E-03  
51.090000             3.110372E-03  
51.110000             3.118193E-03  
51.130000             3.126015E-03  
51.150000             3.130016E-03  
51.170000             3.137839E-03  
51.190000             3.138019E-03  
51.210000             3.138199E-03  
51.230000             3.138379E-03  
51.250000             3.138559E-03  
51.270000             3.142562E-03  
51.290000             3.142742E-03  
51.310000             3.139099E-03  
51.330000             3.139279E-03  
51.350000             3.139459E-03  
51.370000             3.143464E-03  
51.390000             3.147468E-03  
51.410000             3.155298E-03  
51.430000             3.147829E-03  
51.450000             3.140360E-03  
51.470000             3.132890E-03  
51.490000             3.129244E-03  
51.510000             3.129423E-03  
51.530000             3.125777E-03  
51.550000             3.118304E-03  
51.570000             3.114657E-03  
51.590000             3.107182E-03  
51.610000             3.103534E-03  
51.630000             3.103712E-03  
51.650000             3.103890E-03  
51.670000             3.104069E-03  
51.690000             3.108074E-03  
51.710000             3.119737E-03  
51.730000             3.123744E-03  
51.750000             3.123923E-03  
51.770000             3.124103E-03  
51.790000             3.124282E-03  
51.810000             3.132120E-03  
51.830000             3.136129E-03  
51.850000             3.128650E-03  
51.870000             3.128830E-03  
51.890000             3.129009E-03  
51.910000             3.125359E-03  
51.930000             3.110217E-03  
51.950000             3.102735E-03  
51.970000             3.095252E-03  
51.990000             3.091599E-03  
52.010000             3.087945E-03  
52.030000             3.084291E-03  
52.050000             3.076805E-03  
52.070000             3.069318E-03  
52.090000             3.065663E-03  
52.110000             3.058174E-03  
52.130000             3.050685E-03  
52.150000             3.039362E-03  
52.170000             3.028038E-03  
52.190000             3.012879E-03  
52.210000             2.997719E-03  
52.230000             2.978723E-03  
52.250000             2.967393E-03  
52.270000             2.959896E-03  
52.290000             2.940895E-03  
52.310000             2.925726E-03  
52.330000             2.906720E-03  
52.350000             2.883878E-03  
52.370000             2.864868E-03  
52.390000             2.845856E-03  
52.410000             2.834513E-03  
52.430000             2.811661E-03  
52.450000             2.796479E-03  
52.470000             2.773622E-03  
52.490000             2.754599E-03  
52.510000             2.735574E-03  
52.530000             2.720384E-03  
52.550000             2.705192E-03  
52.570000             2.686161E-03  
52.590000             2.667127E-03  
52.610000             2.648092E-03  
52.630000             2.629054E-03  
52.650000             2.610014E-03  
52.670000             2.602487E-03  
52.690000             2.591121E-03  
52.710000             2.583592E-03  
52.730000             2.572224E-03  
52.750000             2.560854E-03  
52.770000             2.541803E-03  
52.790000             2.526591E-03  
52.810000             2.511376E-03  
52.830000             2.496160E-03  
52.850000             2.480942E-03  
52.870000             2.469563E-03  
52.890000             2.458182E-03  
52.910000             2.450641E-03  
52.930000             2.439259E-03  
52.950000             2.424033E-03  
52.970000             2.416489E-03  
52.990000             2.408944E-03  
53.010000             2.401399E-03  
53.030000             2.393852E-03  
53.050000             2.382462E-03  
53.070000             2.367228E-03  
53.090000             2.351992E-03  
53.110000             2.344441E-03  
53.130000             2.329201E-03  
53.150000             2.310117E-03  
53.170000             2.294874E-03  
53.190000             2.283474E-03  
53.210000             2.264383E-03  
53.230000             2.252980E-03  
53.250000             2.241575E-03  
53.270000             2.230169E-03  
53.290000             2.218761E-03  
53.310000             2.211198E-03  
53.330000             2.199788E-03  
53.350000             2.188377E-03  
53.370000             2.176965E-03  
53.390000             2.161705E-03  
53.410000             2.150289E-03  
53.430000             2.146567E-03  
53.450000             2.135149E-03  
53.470000             2.123730E-03  
53.490000             2.116158E-03  
53.510000             2.104737E-03  
53.530000             2.093314E-03  
53.550000             2.081890E-03  
53.570000             2.074314E-03  
53.590000             2.062887E-03  
53.610000             2.059157E-03  
53.630000             2.055427E-03  
53.650000             2.043998E-03  
53.670000             2.044116E-03  
53.690000             2.032685E-03  
53.710000             2.032802E-03  
53.730000             2.032919E-03  
53.750000             2.036887E-03  
53.770000             2.037005E-03  
53.790000             2.033272E-03  
53.810000             2.037240E-03  
53.830000             2.033507E-03  
53.850000             2.029773E-03  
53.870000             2.029890E-03  
53.890000             2.033859E-03  
53.910000             2.033977E-03  
53.930000             2.030242E-03  
53.950000             2.030359E-03  
53.970000             2.034329E-03  
53.990000             2.034447E-03  
54.010000             2.034564E-03  
54.030000             2.034682E-03  
54.050000             2.034800E-03  
54.070000             2.034917E-03  
54.090000             2.035035E-03  
54.110000             2.035153E-03  
54.130000             2.035270E-03  
54.150000             2.035388E-03  
54.170000             2.035506E-03  
54.190000             2.035623E-03  
54.210000             2.031886E-03  
54.230000             2.028147E-03  
54.250000             2.024409E-03  
54.270000             2.012957E-03  
54.290000             2.009217E-03  
54.310000             2.001620E-03  
54.330000             1.997879E-03  
54.350000             1.997994E-03  
54.370000             1.994253E-03  
54.390000             1.990510E-03  
54.410000             1.986768E-03  
54.430000             1.979167E-03  
54.450000             1.971565E-03  
54.470000             1.963962E-03  
54.490000             1.960217E-03  
54.510000             1.952612E-03  
54.530000             1.937289E-03  
54.550000             1.933542E-03  
54.570000             1.922075E-03  
54.590000             1.918326E-03  
54.610000             1.910717E-03  
54.630000             1.903108E-03  
54.650000             1.895497E-03  
54.670000             1.887885E-03  
54.690000             1.880273E-03  
54.710000             1.868798E-03  
54.730000             1.865045E-03  
54.750000             1.853568E-03  
54.770000             1.849814E-03  
54.790000             1.846059E-03  
54.810000             1.838441E-03  
54.830000             1.830823E-03  
54.850000             1.823203E-03  
54.870000             1.823309E-03  
54.890000             1.819551E-03  
54.910000             1.815794E-03  
54.930000             1.819762E-03  
54.950000             1.823732E-03  
54.970000             1.827701E-03  
54.990000             1.835536E-03  
55.010000             1.839507E-03  
55.030000             1.843478E-03  
55.050000             1.847450E-03  
55.070000             1.847557E-03  
55.090000             1.851530E-03  
55.110000             1.855503E-03  
55.130000             1.863342E-03  
55.150000             1.871182E-03  
55.170000             1.879023E-03  
55.190000             1.886865E-03  
55.210000             1.894708E-03  
55.230000             1.906419E-03  
55.250000             1.914264E-03  
55.270000             1.922110E-03  
55.290000             1.929957E-03  
55.310000             1.937805E-03  
55.330000             1.949521E-03  
55.350000             1.957371E-03  
55.370000             1.965222E-03  
55.390000             1.973073E-03  
55.410000             1.980926E-03  
55.430000             1.988779E-03  
55.450000             1.996634E-03  
55.470000             2.008358E-03  
55.490000             2.016215E-03  
55.510000             2.031812E-03  
55.530000             2.047412E-03  
55.550000             2.063013E-03  
55.570000             2.078616E-03  
55.590000             2.094221E-03  
55.610000             2.109827E-03  
55.630000             2.125436E-03  
55.650000             2.141046E-03  
55.670000             2.152786E-03  
55.690000             2.168399E-03  
55.710000             2.184015E-03  
55.730000             2.199632E-03  
55.750000             2.215251E-03  
55.770000             2.226999E-03  
55.790000             2.246495E-03  
55.810000             2.265993E-03  
55.830000             2.285493E-03  
55.850000             2.301122E-03  
55.870000             2.320626E-03  
55.890000             2.340133E-03  
55.910000             2.355767E-03  
55.930000             2.379153E-03  
55.950000             2.394792E-03  
55.970000             2.414308E-03  
55.990000             2.429950E-03  
56.010000             2.449470E-03  
56.030000             2.468992E-03  
56.050000             2.480764E-03  
56.070000             2.504167E-03  
56.090000             2.519819E-03  
56.110000             2.531596E-03  
56.130000             2.547252E-03  
56.150000             2.566787E-03  
56.170000             2.578569E-03  
56.190000             2.598108E-03  
56.210000             2.613771E-03  
56.230000             2.629436E-03  
56.250000             2.645102E-03  
56.270000             2.664650E-03  
56.290000             2.684199E-03  
56.310000             2.699872E-03  
56.330000             2.719426E-03  
56.350000             2.735102E-03  
56.370000             2.750781E-03  
56.390000             2.766461E-03  
56.410000             2.782143E-03  
56.430000             2.797827E-03  
56.450000             2.817393E-03  
56.470000             2.836962E-03  
56.490000             2.848771E-03  
56.510000             2.868343E-03  
56.530000             2.884037E-03  
56.550000             2.895850E-03  
56.570000             2.907665E-03  
56.590000             2.915599E-03  
56.610000             2.923534E-03  
56.630000             2.935352E-03  
56.650000             2.951055E-03  
56.670000             2.962877E-03  
56.690000             2.966933E-03  
56.710000             2.978756E-03  
56.730000             2.990582E-03  
56.750000             2.998524E-03  
56.770000             3.010352E-03  
56.790000             3.026065E-03  
56.810000             3.037896E-03  
56.830000             3.049728E-03  
56.850000             3.061561E-03  
56.870000             3.073396E-03  
56.890000             3.077461E-03  
56.910000             3.085412E-03  
56.930000             3.089478E-03  
56.950000             3.097431E-03  
56.970000             3.105385E-03  
56.990000             3.113340E-03  
57.010000             3.121295E-03  
57.030000             3.129252E-03  
57.050000             3.137209E-03  
57.070000             3.145168E-03  
57.090000             3.153127E-03  
57.110000             3.161087E-03  
57.130000             3.169048E-03  
57.150000             3.177010E-03  
57.170000             3.181085E-03  
57.190000             3.185159E-03  
57.210000             3.189234E-03  
57.230000             3.201089E-03  
57.250000             3.216835E-03  
57.270000             3.220913E-03  
57.290000             3.240552E-03  
57.310000             3.248522E-03  
57.330000             3.252602E-03  
57.350000             3.268355E-03  
57.370000             3.272437E-03  
57.390000             3.284302E-03  
57.410000             3.296169E-03  
57.430000             3.308037E-03  
57.450000             3.319906E-03  
57.470000             3.331776E-03  
57.490000             3.343648E-03  
57.510000             3.363307E-03  
57.530000             3.382968E-03  
57.550000             3.406525E-03  
57.570000             3.418404E-03  
57.590000             3.438072E-03  
57.610000             3.449954E-03  
57.630000             3.465732E-03  
57.650000             3.477617E-03  
57.670000             3.489504E-03  
57.690000             3.497498E-03  
57.710000             3.505492E-03  
57.730000             3.513487E-03  
57.750000             3.521483E-03  
57.770000             3.529481E-03  
57.790000             3.541374E-03  
57.810000             3.553270E-03  
57.830000             3.565167E-03  
57.850000             3.577065E-03  
57.870000             3.596758E-03  
57.890000             3.612556E-03  
57.910000             3.620562E-03  
57.930000             3.640261E-03  
57.950000             3.652167E-03  
57.970000             3.664075E-03  
57.990000             3.672085E-03  
58.010000             3.683995E-03  
58.030000             3.692008E-03  
58.050000             3.700021E-03  
58.070000             3.704137E-03  
58.090000             3.716052E-03  
58.110000             3.720168E-03  
58.130000             3.728186E-03  
58.150000             3.728404E-03  
58.170000             3.736422E-03  
58.190000             3.744442E-03  
58.210000             3.748562E-03  
58.230000             3.752682E-03  
58.250000             3.749000E-03  
58.270000             3.753121E-03  
58.290000             3.761144E-03  
58.310000             3.769168E-03  
58.330000             3.777192E-03  
58.350000             3.789120E-03  
58.370000             3.793245E-03  
58.390000             3.801272E-03  
58.410000             3.797592E-03  
58.430000             3.797814E-03  
58.450000             3.805843E-03  
58.470000             3.802163E-03  
58.490000             3.806289E-03  
58.510000             3.822129E-03  
58.530000             3.818448E-03  
58.550000             3.826481E-03  
58.570000             3.834515E-03  
58.590000             3.838644E-03  
58.610000             3.850585E-03  
58.630000             3.858621E-03  
58.650000             3.870565E-03  
58.670000             3.886415E-03  
58.690000             3.890549E-03  
58.710000             3.898590E-03  
58.730000             3.906632E-03  
58.750000             3.914674E-03  
58.770000             3.922718E-03  
58.790000             3.938577E-03  
58.810000             3.950530E-03  
58.830000             3.958578E-03  
58.850000             3.958810E-03  
58.870000             3.962950E-03  
58.890000             3.967091E-03  
58.910000             3.967323E-03  
58.930000             3.975374E-03  
58.950000             3.983425E-03  
58.970000             3.987568E-03  
58.990000             3.999531E-03  
59.010000             4.007585E-03  
59.030000             4.015640E-03  
59.050000             4.019786E-03  
59.070000             4.016111E-03  
59.090000             4.016347E-03  
59.110000             4.016583E-03  
59.130000             4.016818E-03  
59.150000             4.013142E-03  
59.170000             4.001643E-03  
59.190000             3.990142E-03  
59.210000             3.982552E-03  
59.230000             3.994523E-03  
59.250000             4.002582E-03  
59.270000             3.998904E-03  
59.290000             4.006965E-03  
59.310000             4.015027E-03  
59.330000             4.023090E-03  
59.350000             4.035067E-03  
59.370000             4.047046E-03  
59.390000             4.062940E-03  
59.410000             4.086665E-03  
59.430000             4.110393E-03  
59.450000             4.126294E-03  
59.470000             4.146112E-03  
59.490000             4.158102E-03  
59.510000             4.177924E-03  
59.530000             4.189917E-03  
59.550000             4.213659E-03  
59.570000             4.241321E-03  
59.590000             4.268985E-03  
59.610000             4.284903E-03  
59.630000             4.308656E-03  
59.650000             4.328496E-03  
59.670000             4.344420E-03  
59.690000             4.364263E-03  
59.710000             4.380191E-03  
59.730000             4.400039E-03  
59.750000             4.419890E-03  
59.770000             4.424068E-03  
59.790000             4.428247E-03  
59.810000             4.428507E-03  
59.830000             4.436606E-03  
59.850000             4.444706E-03  
59.870000             4.452807E-03  
59.890000             4.460908E-03  
59.910000             4.465091E-03  
59.930000             4.477115E-03  
59.950000             4.489140E-03  
59.970000             4.489404E-03  
59.990000             4.493589E-03  
60.010000             4.505617E-03  
60.030000             4.513725E-03  
60.050000             4.513991E-03  
60.070000             4.518179E-03  
60.090000             4.522367E-03  
60.110000             4.514788E-03  
60.130000             4.518976E-03  
60.150000             4.507473E-03  
60.170000             4.507738E-03  
60.190000             4.508004E-03  
60.210000             4.504345E-03  
60.230000             4.508534E-03  
60.250000             4.508800E-03  
60.270000             4.509065E-03  
60.290000             4.505406E-03  
60.310000             4.497822E-03  
60.330000             4.494162E-03  
60.350000             4.490501E-03  
60.370000             4.490765E-03  
60.390000             4.491030E-03  
60.410000             4.495220E-03  
60.430000             4.495485E-03  
60.450000             4.495750E-03  
60.470000             4.499941E-03  
60.490000             4.504133E-03  
60.510000             4.516180E-03  
60.530000             4.524300E-03  
60.550000             4.520639E-03  
60.570000             4.524834E-03  
60.590000             4.525100E-03  
60.610000             4.525367E-03  
60.630000             4.529562E-03  
60.650000             4.518043E-03  
60.670000             4.506522E-03  
60.690000             4.502858E-03  
60.710000             4.503124E-03  
60.730000             4.499460E-03  
60.750000             4.491865E-03  
60.770000             4.488200E-03  
60.790000             4.480604E-03  
60.810000             4.476937E-03  
60.830000             4.469340E-03  
60.850000             4.465672E-03  
60.870000             4.462004E-03  
60.890000             4.462267E-03  
60.910000             4.462530E-03  
60.930000             4.454930E-03  
60.950000             4.451260E-03  
60.970000             4.443658E-03  
60.990000             4.428189E-03  
61.010000             4.412719E-03  
61.030000             4.393314E-03  
61.050000             4.385706E-03  
61.070000             4.374164E-03  
61.090000             4.358687E-03  
61.110000             4.343208E-03  
61.130000             4.323793E-03  
61.150000             4.312244E-03  
61.170000             4.300694E-03  
61.190000             4.281273E-03  
61.210000             4.269720E-03  
61.230000             4.258166E-03  
61.250000             4.242675E-03  
61.270000             4.219310E-03  
61.290000             4.203814E-03  
61.310000             4.184380E-03  
61.330000             4.164944E-03  
61.350000             4.145506E-03  
61.370000             4.122128E-03  
61.390000             4.102685E-03  
61.410000             4.079302E-03  
61.430000             4.055917E-03  
61.450000             4.036466E-03  
61.470000             4.017013E-03  
61.490000             4.005435E-03  
61.510000             3.989917E-03  
61.530000             3.974397E-03  
61.550000             3.962814E-03  
61.570000             3.947291E-03  
61.590000             3.927826E-03  
61.610000             3.908358E-03  
61.630000             3.892829E-03  
61.650000             3.873357E-03  
61.670000             3.849943E-03  
61.690000             3.826526E-03  
61.710000             3.810988E-03  
61.730000             3.803330E-03  
61.750000             3.787789E-03  
61.770000             3.780130E-03  
61.790000             3.772469E-03  
61.810000             3.760866E-03  
61.830000             3.753203E-03  
61.850000             3.729769E-03  
61.870000             3.718161E-03  
61.890000             3.710495E-03  
61.910000             3.698884E-03  
61.930000             3.687272E-03  
61.950000             3.675659E-03  
61.970000             3.667988E-03  
61.990000             3.652428E-03  
62.010000             3.644755E-03  
62.030000             3.637081E-03  
62.050000             3.621516E-03  
62.070000             3.613840E-03  
62.090000             3.602217E-03  
62.110000             3.578756E-03  
62.130000             3.559238E-03  
62.150000             3.539718E-03  
62.170000             3.524142E-03  
62.190000             3.500671E-03  
62.210000             3.489038E-03  
62.230000             3.465561E-03  
62.250000             3.442083E-03  
62.270000             3.418601E-03  
62.290000             3.395117E-03  
62.310000             3.371629E-03  
62.330000             3.348139E-03  
62.350000             3.328595E-03  
62.370000             3.309049E-03  
62.390000             3.293449E-03  
62.410000             3.281796E-03  
62.430000             3.266193E-03  
62.450000             3.250588E-03  
62.470000             3.234980E-03  
62.490000             3.219372E-03  
62.510000             3.203761E-03  
62.530000             3.188148E-03  
62.550000             3.180435E-03  
62.570000             3.168771E-03  
62.590000             3.161056E-03  
62.610000             3.149388E-03  
62.630000             3.141672E-03  
62.650000             3.133954E-03  
62.670000             3.122283E-03  
62.690000             3.114563E-03  
62.710000             3.110795E-03  
62.730000             3.110979E-03  
62.750000             3.107211E-03  
62.770000             3.103441E-03  
62.790000             3.103626E-03  
62.810000             3.099856E-03  
62.830000             3.100040E-03  
62.850000             3.100223E-03  
62.870000             3.100407E-03  
62.890000             3.092682E-03  
62.910000             3.084955E-03  
62.930000             3.081183E-03  
62.950000             3.077410E-03  
62.970000             3.069681E-03  
62.990000             3.061951E-03  
63.010000             3.058177E-03  
63.030000             3.054402E-03  
63.050000             3.050626E-03  
63.070000             3.046850E-03  
63.090000             3.035160E-03  
63.110000             3.027425E-03  
63.130000             3.031562E-03  
63.150000             3.027784E-03  
63.170000             3.016090E-03  
63.190000             3.020227E-03  
63.210000             3.016448E-03  
63.230000             3.016627E-03  
63.250000             3.008888E-03  
63.270000             3.009067E-03  
63.290000             3.017165E-03  
63.310000             3.017344E-03  
63.330000             3.013563E-03  
63.350000             3.017702E-03  
63.370000             3.025802E-03  
63.390000             3.025982E-03  
63.410000             3.022201E-03  
63.430000             3.038225E-03  
63.450000             3.042367E-03  
63.470000             3.038586E-03  
63.490000             3.038767E-03  
63.510000             3.038948E-03  
63.530000             3.039128E-03  
63.550000             3.043272E-03  
63.570000             3.047415E-03  
63.590000             3.051559E-03  
63.610000             3.055704E-03  
63.630000             3.055886E-03  
63.650000             3.060031E-03  
63.670000             3.064177E-03  
63.690000             3.068324E-03  
63.710000             3.072471E-03  
63.730000             3.072653E-03  
63.750000             3.076801E-03  
63.770000             3.076984E-03  
63.790000             3.085098E-03  
63.810000             3.085281E-03  
63.830000             3.085465E-03  
63.850000             3.081682E-03  
63.870000             3.081866E-03  
63.890000             3.078083E-03  
63.910000             3.078266E-03  
63.930000             3.078449E-03  
63.950000             3.074665E-03  
63.970000             3.074848E-03  
63.990000             3.067095E-03  
64.010000             3.063310E-03  
64.030000             3.067460E-03  
64.050000             3.063674E-03  
64.070000             3.067826E-03  
64.090000             3.071977E-03  
64.110000             3.072160E-03  
64.130000             3.068374E-03  
64.150000             3.072526E-03  
64.170000             3.072709E-03  
64.190000             3.072892E-03  
64.210000             3.065134E-03  
64.230000             3.053405E-03  
64.250000             3.057558E-03  
64.270000             3.057740E-03  
64.290000             3.046008E-03  
64.310000             3.026331E-03  
64.330000             3.018568E-03  
64.350000             3.018748E-03  
64.370000             3.007011E-03  
64.390000             3.003218E-03  
64.410000             3.003397E-03  
64.430000             3.003576E-03  
64.450000             2.999781E-03  
64.470000             2.995987E-03  
64.490000             2.984244E-03  
64.510000             2.976474E-03  
64.530000             2.960755E-03  
64.550000             2.945034E-03  
64.570000             2.937260E-03  
64.590000             2.925511E-03  
64.610000             2.905810E-03  
64.630000             2.890081E-03  
64.650000             2.882303E-03  
64.670000             2.870547E-03  
64.690000             2.846862E-03  
64.710000             2.831126E-03  
64.730000             2.811413E-03  
64.750000             2.799650E-03  
64.770000             2.787886E-03  
64.790000             2.772143E-03  
64.810000             2.760376E-03  
64.830000             2.744630E-03  
64.850000             2.728882E-03  
64.870000             2.709154E-03  
64.890000             2.697380E-03  
64.910000             2.689584E-03  
64.930000             2.681787E-03  
64.950000             2.673988E-03  
64.970000             2.666189E-03  
64.990000             2.654409E-03  
65.010000             2.642628E-03  
65.030000             2.634826E-03  
65.050000             2.619062E-03  
65.070000             2.611257E-03  
65.090000             2.603451E-03  
65.110000             2.591664E-03  
65.130000             2.575893E-03  
65.150000             2.564103E-03  
65.170000             2.560274E-03  
65.190000             2.544499E-03  
65.210000             2.524740E-03  
65.230000             2.508961E-03  
65.250000             2.501145E-03  
65.270000             2.485363E-03  
65.290000             2.477545E-03  
65.310000             2.473709E-03  
65.330000             2.465890E-03  
65.350000             2.450102E-03  
65.370000             2.442280E-03  
65.390000             2.438441E-03  
65.410000             2.442572E-03  
65.430000             2.442718E-03  
65.450000             2.438879E-03  
65.470000             2.443010E-03  
65.490000             2.451127E-03  
65.510000             2.443302E-03  
65.530000             2.447434E-03  
65.550000             2.455553E-03  
65.570000             2.459686E-03  
65.590000             2.463820E-03  
65.610000             2.463967E-03  
65.630000             2.472089E-03  
65.650000             2.480212E-03  
65.670000             2.484348E-03  
65.690000             2.488485E-03  
65.710000             2.496610E-03  
65.730000             2.488783E-03  
65.750000             2.484943E-03  
65.770000             2.485091E-03  
65.790000             2.485240E-03  
65.810000             2.481399E-03  
65.830000             2.481548E-03  
65.850000             2.481696E-03  
65.870000             2.485835E-03  
65.890000             2.481994E-03  
65.910000             2.478152E-03  
65.930000             2.474309E-03  
65.950000             2.470466E-03  
65.970000             2.470614E-03  
65.990000             2.466770E-03  
66.010000             2.462926E-03  
66.030000             2.459082E-03  
66.050000             2.455237E-03  
66.070000             2.447399E-03  
66.090000             2.443553E-03  
66.110000             2.439706E-03  
66.130000             2.439852E-03  
66.150000             2.436005E-03  
66.170000             2.428164E-03  
66.190000             2.420321E-03  
66.210000             2.416472E-03  
66.230000             2.420611E-03  
66.250000             2.416762E-03  
66.270000             2.416906E-03  
66.290000             2.417051E-03  
66.310000             2.421191E-03  
66.330000             2.425332E-03  
66.350000             2.413490E-03  
66.370000             2.409639E-03  
66.390000             2.409783E-03  
66.410000             2.401934E-03  
66.430000             2.398082E-03  
66.450000             2.394228E-03  
66.470000             2.386377E-03  
66.490000             2.382523E-03  
66.510000             2.378668E-03  
66.530000             2.374813E-03  
66.550000             2.374955E-03  
66.570000             2.375097E-03  
66.590000             2.375240E-03  
66.610000             2.375382E-03  
66.630000             2.371526E-03  
66.650000             2.371668E-03  
66.670000             2.375810E-03  
66.690000             2.379952E-03  
66.710000             2.372095E-03  
66.730000             2.372237E-03  
66.750000             2.376380E-03  
66.770000             2.380524E-03  
66.790000             2.384668E-03  
66.810000             2.376808E-03  
66.830000             2.368948E-03  
66.850000             2.361086E-03  
66.870000             2.361228E-03  
66.890000             2.361370E-03  
66.910000             2.361511E-03  
66.930000             2.365656E-03  
66.950000             2.361795E-03  
66.970000             2.357934E-03  
66.990000             2.366082E-03  
67.010000             2.374232E-03  
67.030000             2.378378E-03  
67.050000             2.386530E-03  
67.070000             2.398687E-03  
67.090000             2.406840E-03  
67.110000             2.406985E-03  
67.130000             2.407129E-03  
67.150000             2.407274E-03  
67.170000             2.411424E-03  
67.190000             2.415575E-03  
67.210000             2.419726E-03  
67.230000             2.431891E-03  
67.250000             2.452070E-03  
67.270000             2.460232E-03  
67.290000             2.468394E-03  
67.310000             2.472549E-03  
67.330000             2.476706E-03  
67.350000             2.484870E-03  
67.370000             2.493036E-03  
67.390000             2.497194E-03  
67.410000             2.497344E-03  
67.430000             2.505512E-03  
67.450000             2.505663E-03  
67.470000             2.505813E-03  
67.490000             2.505964E-03  
67.510000             2.506115E-03  
67.530000             2.514286E-03  
67.550000             2.514437E-03  
67.570000             2.518599E-03  
67.590000             2.518750E-03  
67.610000             2.526924E-03  
67.630000             2.519053E-03  
67.650000             2.523216E-03  
67.670000             2.527380E-03  
67.690000             2.523520E-03  
67.710000             2.519660E-03  
67.730000             2.519811E-03  
67.750000             2.519963E-03  
67.770000             2.524128E-03  
67.790000             2.520266E-03  
67.810000             2.524432E-03  
67.830000             2.520570E-03  
67.850000             2.524736E-03  
67.870000             2.528902E-03  
67.890000             2.533068E-03  
67.910000             2.533221E-03  
67.930000             2.533373E-03  
67.950000             2.529511E-03  
67.970000             2.529663E-03  
67.990000             2.525800E-03  
68.010000             2.525952E-03  
68.030000             2.530120E-03  
68.050000             2.522240E-03  
68.070000             2.522392E-03  
68.090000             2.522544E-03  
68.110000             2.518679E-03  
68.130000             2.514814E-03  
68.150000             2.510948E-03  
68.170000             2.507081E-03  
68.190000             2.503214E-03  
68.210000             2.499347E-03  
68.230000             2.495479E-03  
68.250000             2.495630E-03  
68.270000             2.483723E-03  
68.290000             2.483873E-03  
68.310000             2.480003E-03  
68.330000             2.472113E-03  
68.350000             2.464223E-03  
68.370000             2.456331E-03  
68.390000             2.452458E-03  
68.410000             2.440544E-03  
68.430000             2.428629E-03  
68.450000             2.416712E-03  
68.470000             2.408815E-03  
68.490000             2.392874E-03  
68.510000             2.376931E-03  
68.530000             2.360985E-03  
68.550000             2.349061E-03  
68.570000             2.333112E-03  
68.590000             2.325207E-03  
68.610000             2.317301E-03  
68.630000             2.305371E-03  
68.650000             2.301487E-03  
68.670000             2.297602E-03  
68.690000             2.293716E-03  
68.710000             2.277758E-03  
68.730000             2.277895E-03  
68.750000             2.265958E-03  
68.770000             2.266095E-03  
68.790000             2.262207E-03  
68.810000             2.266369E-03  
68.830000             2.258454E-03  
68.850000             2.258590E-03  
68.870000             2.266779E-03  
68.890000             2.266916E-03  
68.910000             2.259000E-03  
68.930000             2.255109E-03  
68.950000             2.263300E-03  
68.970000             2.263437E-03  
68.990000             2.263573E-03  
69.010000             2.267738E-03  
69.030000             2.271903E-03  
69.050000             2.272041E-03  
69.070000             2.272178E-03  
69.090000             2.272315E-03  
69.110000             2.264394E-03  
69.130000             2.264531E-03  
69.150000             2.264668E-03  
69.170000             2.264805E-03  
69.190000             2.264942E-03  
69.210000             2.257018E-03  
69.230000             2.249093E-03  
69.250000             2.241167E-03  
69.270000             2.233241E-03  
69.290000             2.229344E-03  
69.310000             2.233511E-03  
69.330000             2.229614E-03  
69.350000             2.229749E-03  
69.370000             2.229884E-03  
69.390000             2.238084E-03  
69.410000             2.238219E-03  
69.430000             2.242388E-03  
69.450000             2.246557E-03  
69.470000             2.250726E-03  
69.490000             2.258930E-03  
69.510000             2.271169E-03  
69.530000             2.271306E-03  
69.550000             2.275478E-03  
69.570000             2.275616E-03  
69.590000             2.283824E-03  
69.610000             2.283962E-03  
69.630000             2.288136E-03  
69.650000             2.296346E-03  
69.670000             2.292449E-03  
69.690000             2.296624E-03  
69.710000             2.300799E-03  
69.730000             2.300939E-03  
69.750000             2.301078E-03  
69.770000             2.305254E-03  
69.790000             2.305394E-03  
69.810000             2.313609E-03  
69.830000             2.321825E-03  
69.850000             2.326004E-03  
69.870000             2.322106E-03  
69.890000             2.318208E-03  
69.910000             2.318349E-03  
69.930000             2.322529E-03  
69.950000             2.322669E-03  
69.970000             2.326850E-03  
69.990000             2.322951E-03  
70.010000             2.323092E-03  
70.030000             2.327273E-03  
70.050000             2.327414E-03  
70.070000             2.327555E-03  
70.090000             2.335778E-03  
70.110000             2.348044E-03  
70.130000             2.348186E-03  
70.150000             2.352371E-03  
70.170000             2.364640E-03  
70.190000             2.376910E-03  
70.210000             2.381097E-03  
70.230000             2.385284E-03  
70.250000             2.389472E-03  
70.270000             2.397703E-03  
70.290000             2.405936E-03  
70.310000             2.414170E-03  
70.330000             2.422404E-03  
70.350000             2.426595E-03  
70.370000             2.430787E-03  
70.390000             2.434980E-03  
70.410000             2.443217E-03  
70.430000             2.451456E-03  
70.450000             2.459696E-03  
70.470000             2.467937E-03  
70.490000             2.480225E-03  
70.510000             2.488468E-03  
70.530000             2.492666E-03  
70.550000             2.496864E-03  
70.570000             2.501062E-03  
70.590000             2.501214E-03  
70.610000             2.501366E-03  
70.630000             2.501518E-03  
70.650000             2.497622E-03  
70.670000             2.501822E-03  
70.690000             2.497925E-03  
70.710000             2.494028E-03  
70.730000             2.494180E-03  
70.750000             2.494331E-03  
70.770000             2.494483E-03  
70.790000             2.494634E-03  
70.810000             2.494786E-03  
70.830000             2.494937E-03  
70.850000             2.495089E-03  
70.870000             2.491190E-03  
70.890000             2.491341E-03  
70.910000             2.495544E-03  
70.930000             2.495695E-03  
70.950000             2.491795E-03  
70.970000             2.500051E-03  
70.990000             2.504255E-03  
71.010000             2.504407E-03  
71.030000             2.504559E-03  
71.050000             2.504712E-03  
71.070000             2.496757E-03  
71.090000             2.496909E-03  
71.110000             2.493007E-03  
71.130000             2.489105E-03  
71.150000             2.489256E-03  
71.170000             2.485353E-03  
71.190000             2.485505E-03  
71.210000             2.485656E-03  
71.230000             2.481752E-03  
71.250000             2.481903E-03  
71.270000             2.477998E-03  
71.290000             2.494372E-03  
71.310000             2.490468E-03  
71.330000             2.478450E-03  
71.350000             2.474545E-03  
71.370000             2.462525E-03  
71.390000             2.454560E-03  
71.410000             2.450652E-03  
71.430000             2.446744E-03  
71.450000             2.442835E-03  
71.470000             2.430809E-03  
71.490000             2.439074E-03  
71.510000             2.439222E-03  
71.530000             2.443430E-03  
71.550000             2.443579E-03  
71.570000             2.451846E-03  
71.590000             2.451995E-03  
71.610000             2.448085E-03  
71.630000             2.452294E-03  
71.650000             2.456504E-03  
71.670000             2.456653E-03  
71.690000             2.452742E-03  
71.710000             2.461014E-03  
71.730000             2.461164E-03  
71.750000             2.457252E-03  
71.770000             2.465525E-03  
71.790000             2.469738E-03  
71.810000             2.469888E-03  
71.830000             2.470039E-03  
71.850000             2.478315E-03  
71.870000             2.478466E-03  
71.890000             2.478617E-03  
71.910000             2.474704E-03  
71.930000             2.482983E-03  
71.950000             2.483134E-03  
71.970000             2.483286E-03  
71.990000             2.487502E-03  
72.010000             2.487653E-03  
72.030000             2.491870E-03  
72.050000             2.483891E-03  
72.070000             2.488108E-03  
72.090000             2.484194E-03  
72.110000             2.480280E-03  
72.130000             2.488564E-03  
72.150000             2.488715E-03  
72.170000             2.488867E-03  
72.190000             2.497153E-03  
72.210000             2.505440E-03  
72.230000             2.513728E-03  
72.250000             2.517949E-03  
72.270000             2.526239E-03  
72.290000             2.530461E-03  
72.310000             2.534684E-03  
72.330000             2.538908E-03  
72.350000             2.543132E-03  
72.370000             2.547356E-03  
72.390000             2.551581E-03  
72.410000             2.555807E-03  
72.430000             2.564103E-03  
72.450000             2.568329E-03  
72.470000             2.568486E-03  
72.490000             2.572714E-03  
72.510000             2.581013E-03  
72.530000             2.593384E-03  
72.550000             2.605757E-03  
72.570000             2.614060E-03  
72.590000             2.626435E-03  
72.610000             2.634740E-03  
72.630000             2.647119E-03  
72.650000             2.667644E-03  
72.670000             2.671880E-03  
72.690000             2.688336E-03  
72.710000             2.692574E-03  
72.730000             2.704960E-03  
72.750000             2.717347E-03  
72.770000             2.733810E-03  
72.790000             2.750275E-03  
72.810000             2.766742E-03  
72.830000             2.779136E-03  
72.850000             2.791532E-03  
72.870000             2.803929E-03  
72.890000             2.828555E-03  
72.910000             2.836879E-03  
72.930000             2.849282E-03  
72.950000             2.861685E-03  
72.970000             2.874090E-03  
72.990000             2.890574E-03  
73.010000             2.907060E-03  
73.030000             2.923547E-03  
73.050000             2.940037E-03  
73.070000             2.956529E-03  
73.090000             2.968944E-03  
73.110000             2.981361E-03  
73.130000             2.993780E-03  
73.150000             3.006200E-03  
73.170000             3.022701E-03  
73.190000             3.035124E-03  
73.210000             3.051629E-03  
73.230000             3.064055E-03  
73.250000             3.076484E-03  
73.270000             3.084833E-03  
73.290000             3.093183E-03  
73.310000             3.105615E-03  
73.330000             3.113968E-03  
73.350000             3.114159E-03  
73.370000             3.126594E-03  
73.390000             3.126786E-03  
73.410000             3.122895E-03  
73.430000             3.123086E-03  
73.450000             3.119195E-03  
73.470000             3.119386E-03  
73.490000             3.119577E-03  
73.510000             3.119768E-03  
73.530000             3.128127E-03  
73.550000             3.132402E-03  
73.570000             3.148931E-03  
73.590000             3.153208E-03  
73.610000             3.153402E-03  
73.630000             3.161765E-03  
73.650000             3.174214E-03  
73.670000             3.182580E-03  
73.690000             3.190946E-03  
73.710000             3.195228E-03  
73.730000             3.199510E-03  
73.750000             3.199706E-03  
73.770000             3.195815E-03  
73.790000             3.196011E-03  
73.810000             3.192120E-03  
73.830000             3.196403E-03  
73.850000             3.204774E-03  
73.870000             3.209059E-03  
73.890000             3.213344E-03  
73.910000             3.217630E-03  
73.930000             3.217827E-03  
73.950000             3.218024E-03  
73.970000             3.218222E-03  
73.990000             3.218419E-03  
74.010000             3.222706E-03  
74.030000             3.222904E-03  
74.050000             3.223102E-03  
74.070000             3.223299E-03  
74.090000             3.223497E-03  
74.110000             3.215513E-03  
74.130000             3.215710E-03  
74.150000             3.215908E-03  
74.170000             3.216105E-03  
74.190000             3.220394E-03  
74.210000             3.220592E-03  
74.230000             3.220790E-03  
74.250000             3.212802E-03  
74.270000             3.204813E-03  
74.290000             3.196824E-03  
74.310000             3.188833E-03  
74.330000             3.180841E-03  
74.350000             3.172849E-03  
74.370000             3.164855E-03  
74.390000             3.156860E-03  
74.410000             3.148865E-03  
74.430000             3.136773E-03  
74.450000             3.132871E-03  
74.470000             3.124872E-03  
74.490000             3.116872E-03  
74.510000             3.104776E-03  
74.530000             3.092678E-03  
74.550000             3.076482E-03  
74.570000             3.064381E-03  
74.590000             3.048181E-03  
74.610000             3.040174E-03  
74.630000             3.028068E-03  
74.650000             3.020059E-03  
74.670000             3.007950E-03  
74.690000             3.004037E-03  
74.710000             3.000123E-03  
74.730000             2.996209E-03  
74.750000             2.992294E-03  
74.770000             2.988379E-03  
74.790000             2.984463E-03  
74.810000             2.980547E-03  
74.830000             2.972530E-03  
74.850000             2.976813E-03  
74.870000             2.972895E-03  
74.890000             2.968977E-03  
74.910000             2.956857E-03  
74.930000             2.948836E-03  
74.950000             2.940815E-03  
74.970000             2.932792E-03  
74.990000             2.928870E-03  
75.010000             2.916744E-03  
75.030000             2.908718E-03  
75.050000             2.896589E-03  
75.070000             2.880355E-03  
75.090000             2.872325E-03  
75.110000             2.856088E-03  
75.130000             2.856263E-03  
75.150000             2.844127E-03  
75.170000             2.836093E-03  
75.190000             2.823954E-03  
75.210000             2.815919E-03  
75.230000             2.807882E-03  
75.250000             2.799844E-03  
75.270000             2.791805E-03  
75.290000             2.775554E-03  
75.310000             2.767513E-03  
75.330000             2.751258E-03  
75.350000             2.747320E-03  
75.370000             2.743383E-03  
75.390000             2.723016E-03  
75.410000             2.719077E-03  
75.430000             2.706921E-03  
75.450000             2.690657E-03  
75.470000             2.678498E-03  
75.490000             2.670446E-03  
75.510000             2.666502E-03  
75.530000             2.658449E-03  
75.550000             2.662722E-03  
75.570000             2.658777E-03  
75.590000             2.658941E-03  
75.610000             2.659104E-03  
75.630000             2.663379E-03  
75.650000             2.667653E-03  
75.670000             2.680150E-03  
75.690000             2.688537E-03  
75.710000             2.696925E-03  
75.730000             2.709425E-03  
75.750000             2.721928E-03  
75.770000             2.734431E-03  
75.790000             2.738712E-03  
75.810000             2.742993E-03  
75.830000             2.747275E-03  
75.850000             2.747445E-03  
75.870000             2.755841E-03  
75.890000             2.751897E-03  
75.910000             2.752067E-03  
75.930000             2.748123E-03  
75.950000             2.744178E-03  
75.970000             2.736119E-03  
75.990000             2.736288E-03  
76.010000             2.724112E-03  
76.030000             2.716049E-03  
76.050000             2.716217E-03  
76.070000             2.712269E-03  
76.090000             2.716552E-03  
76.110000             2.724953E-03  
76.130000             2.733354E-03  
76.150000             2.741756E-03  
76.170000             2.737809E-03  
76.190000             2.746212E-03  
76.210000             2.746382E-03  
76.230000             2.750669E-03  
76.250000             2.754957E-03  
76.270000             2.759246E-03  
76.290000             2.763535E-03  
76.310000             2.771943E-03  
76.330000             2.772114E-03  
76.350000             2.776405E-03  
76.370000             2.776576E-03  
76.390000             2.780868E-03  
76.410000             2.785160E-03  
76.430000             2.785332E-03  
76.450000             2.789624E-03  
76.470000             2.789797E-03  
76.490000             2.794090E-03  
76.510000             2.794263E-03  
76.530000             2.802679E-03  
76.550000             2.811096E-03  
76.570000             2.803026E-03  
76.590000             2.807321E-03  
76.610000             2.803372E-03  
76.630000             2.799423E-03  
76.650000             2.799596E-03  
76.670000             2.803892E-03  
76.690000             2.808190E-03  
76.710000             2.820735E-03  
76.730000             2.825034E-03  
76.750000             2.829333E-03  
76.770000             2.837757E-03  
76.790000             2.842058E-03  
76.810000             2.854609E-03  
76.830000             2.867162E-03  
76.850000             2.871465E-03  
76.870000             2.879894E-03  
76.890000             2.884199E-03  
76.910000             2.892630E-03  
76.930000             2.896936E-03  
76.950000             2.905369E-03  
76.970000             2.905549E-03  
76.990000             2.909856E-03  
77.010000             2.914164E-03  
77.030000             2.918473E-03  
77.050000             2.922782E-03  
77.070000             2.927091E-03  
77.090000             2.931401E-03  
77.110000             2.931583E-03  
77.130000             2.931764E-03  
77.150000             2.936075E-03  
77.170000             2.936257E-03  
77.190000             2.944699E-03  
77.210000             2.949012E-03  
77.230000             2.961586E-03  
77.250000             2.957639E-03  
77.270000             2.966084E-03  
77.290000             2.970399E-03  
77.310000             2.974715E-03  
77.330000             2.983163E-03  
77.350000             2.987480E-03  
77.370000             2.991797E-03  
77.390000             2.983718E-03  
77.410000             2.992168E-03  
77.430000             2.992354E-03  
77.450000             2.980139E-03  
77.470000             2.984458E-03  
77.490000             2.988777E-03  
77.510000             2.980694E-03  
77.530000             2.976744E-03  
77.550000             2.972794E-03  
77.570000             2.964709E-03  
77.590000             2.964893E-03  
77.610000             2.960941E-03  
77.630000             2.961125E-03  
77.650000             2.953037E-03  
77.670000             2.949084E-03  
77.690000             2.945130E-03  
77.710000             2.941176E-03  
77.730000             2.937222E-03  
77.750000             2.933267E-03  
77.770000             2.933449E-03  
77.790000             2.929494E-03  
77.810000             2.921399E-03  
77.830000             2.921581E-03  
77.850000             2.913485E-03  
77.870000             2.905389E-03  
77.890000             2.897291E-03  
77.910000             2.889192E-03  
77.930000             2.881093E-03  
77.950000             2.872992E-03  
77.970000             2.864891E-03  
77.990000             2.856788E-03  
78.010000             2.848684E-03  
78.030000             2.844720E-03  
78.050000             2.836615E-03  
78.070000             2.828509E-03  
78.090000             2.816260E-03  
78.110000             2.808151E-03  
78.130000             2.800041E-03  
78.150000             2.791931E-03  
78.170000             2.783819E-03  
78.190000             2.779849E-03  
78.210000             2.771736E-03  
78.230000             2.763621E-03  
78.250000             2.755506E-03  
78.270000             2.747389E-03  
78.290000             2.739272E-03  
78.310000             2.727009E-03  
78.330000             2.723034E-03  
78.350000             2.710768E-03  
78.370000             2.702647E-03  
78.390000             2.694524E-03  
78.410000             2.686400E-03  
78.430000             2.682421E-03  
78.450000             2.674296E-03  
78.470000             2.670316E-03  
78.490000             2.653895E-03  
78.510000             2.645766E-03  
78.530000             2.633489E-03  
78.550000             2.621210E-03  
78.570000             2.608930E-03  
78.590000             2.596648E-03  
78.610000             2.580217E-03  
78.630000             2.567932E-03  
78.650000             2.547348E-03  
78.670000             2.530910E-03  
78.690000             2.514471E-03  
78.710000             2.498029E-03  
78.730000             2.481585E-03  
78.750000             2.465139E-03  
78.770000             2.452842E-03  
78.790000             2.432242E-03  
78.810000             2.415790E-03  
78.830000             2.399336E-03  
78.850000             2.387031E-03  
78.870000             2.378877E-03  
78.890000             2.370721E-03  
78.910000             2.366716E-03  
78.930000             2.350254E-03  
78.950000             2.342095E-03  
78.970000             2.333936E-03  
78.990000             2.325775E-03  
79.010000             2.321766E-03  
79.030000             2.313603E-03  
79.050000             2.305440E-03  
79.070000             2.297275E-03  
79.090000             2.293264E-03  
79.110000             2.289252E-03  
79.130000             2.285239E-03  
79.150000             2.285382E-03  
79.170000             2.273058E-03  
79.190000             2.273200E-03  
79.210000             2.269185E-03  
79.230000             2.269327E-03  
79.250000             2.265312E-03  
79.270000             2.257139E-03  
79.290000             2.257280E-03  
79.310000             2.257421E-03  
79.330000             2.265877E-03  
79.350000             2.266018E-03  
79.370000             2.270317E-03  
79.390000             2.278776E-03  
79.410000             2.283077E-03  
79.430000             2.283219E-03  
79.450000             2.287521E-03  
79.470000             2.291823E-03  
79.490000             2.291966E-03  
79.510000             2.287949E-03  
79.530000             2.292252E-03  
79.550000             2.300716E-03  
79.570000             2.292538E-03  
79.590000             2.288520E-03  
79.610000             2.284502E-03  
79.630000             2.284644E-03  
79.650000             2.284787E-03  
79.670000             2.284929E-03  
79.690000             2.285072E-03  
79.710000             2.281052E-03  
79.730000             2.277032E-03  
79.750000             2.273011E-03  
79.770000             2.268990E-03  
79.790000             2.264968E-03  
79.810000             2.265109E-03  
79.830000             2.269415E-03  
79.850000             2.269557E-03  
79.870000             2.282192E-03  
79.890000             2.286500E-03  
79.910000             2.294973E-03  
79.930000             2.299281E-03  
79.950000             2.311922E-03  
79.970000             2.328730E-03  
79.990000             2.345540E-03  
