#### t[ps] ### MACF <Q(0)*Q(t)> 
0.020000              1.000000E+00  
0.060000              9.771439E-01  
0.100000              9.677207E-01  
0.140000              9.593418E-01  
0.180000              9.514847E-01  
0.220000              9.441495E-01  
0.260000              9.367264E-01  
0.300000              9.295422E-01  
0.340000              9.224443E-01  
0.380000              9.158032E-01  
0.420000              9.091179E-01  
0.460000              9.024101E-01  
0.500000              8.961156E-01  
0.540000              8.897987E-01  
0.580000              8.838297E-01  
0.620000              8.780780E-01  
0.660000              8.719771E-01  
0.700000              8.658974E-01  
0.740000              8.600132E-01  
0.780000              8.541938E-01  
0.820000              8.483739E-01  
0.860000              8.427059E-01  
0.900000              8.373207E-01  
0.940000              8.318041E-01  
0.980000              8.265704E-01  
1.020000              8.214016E-01  
1.060000              8.159489E-01  
1.100000              8.106700E-01  
1.140000              8.054342E-01  
1.180000              8.000889E-01  
1.220000              7.949610E-01  
1.260000              7.897673E-01  
1.300000              7.846602E-01  
1.340000              7.795527E-01  
1.380000              7.746627E-01  
1.420000              7.697286E-01  
1.460000              7.647722E-01  
1.500000              7.599244E-01  
1.540000              7.552288E-01  
1.580000              7.505327E-01  
1.620000              7.458798E-01  
1.660000              7.413355E-01  
1.700000              7.367907E-01  
1.740000              7.322891E-01  
1.780000              7.278526E-01  
1.820000              7.232846E-01  
1.860000              7.189781E-01  
1.900000              7.147803E-01  
1.940000              7.106912E-01  
1.980000              7.064270E-01  
2.020000              7.024026E-01  
2.060000              6.980284E-01  
2.100000              6.939595E-01  
2.140000              6.900429E-01  
2.180000              6.857112E-01  
2.220000              6.817720E-01  
2.260000              6.773958E-01  
2.300000              6.733247E-01  
2.340000              6.691660E-01  
2.380000              6.650942E-01  
2.420000              6.612403E-01  
2.460000              6.574734E-01  
2.500000              6.535751E-01  
2.540000              6.499604E-01  
2.580000              6.464545E-01  
2.620000              6.428608E-01  
2.660000              6.392450E-01  
2.700000              6.358909E-01  
2.740000              6.325147E-01  
2.780000              6.290944E-01  
2.820000              6.256301E-01  
2.860000              6.222966E-01  
2.900000              6.188534E-01  
2.940000              6.153007E-01  
2.980000              6.120535E-01  
3.020000              6.089153E-01  
3.060000              6.055801E-01  
3.100000              6.024412E-01  
3.140000              5.991490E-01  
3.180000              5.957691E-01  
3.220000              5.926730E-01  
3.260000              5.894017E-01  
3.300000              5.863268E-01  
3.340000              5.834703E-01  
3.380000              5.803948E-01  
3.420000              5.774721E-01  
3.460000              5.745053E-01  
3.500000              5.714946E-01  
3.540000              5.684616E-01  
3.580000              5.655158E-01  
3.620000              5.628541E-01  
3.660000              5.601264E-01  
3.700000              5.573329E-01  
3.740000              5.544079E-01  
3.780000              5.515481E-01  
3.820000              5.487975E-01  
3.860000              5.462654E-01  
3.900000              5.436236E-01  
3.940000              5.409378E-01  
3.980000              5.382955E-01  
4.020000              5.356092E-01  
4.060000              5.330320E-01  
4.100000              5.304983E-01  
4.140000              5.279425E-01  
4.180000              5.254521E-01  
4.220000              5.230052E-01  
4.260000              5.203610E-01  
4.300000              5.179793E-01  
4.340000              5.153128E-01  
4.380000              5.126678E-01  
4.420000              5.100445E-01  
4.460000              5.075086E-01  
4.500000              5.049942E-01  
4.540000              5.026329E-01  
4.580000              5.002932E-01  
4.620000              4.978876E-01  
4.660000              4.955256E-01  
4.700000              4.932947E-01  
4.740000              4.910198E-01  
4.780000              4.887447E-01  
4.820000              4.864913E-01  
4.860000              4.841719E-01  
4.900000              4.819618E-01  
4.940000              4.797515E-01  
4.980000              4.774314E-01  
5.020000              4.752206E-01  
5.060000              4.730316E-01  
5.100000              4.709299E-01  
5.140000              4.688500E-01  
5.180000              4.668794E-01  
5.220000              4.649962E-01  
5.260000              4.630253E-01  
5.300000              4.609226E-01  
5.340000              4.588635E-01  
5.380000              4.568700E-01  
5.420000              4.549421E-01  
5.460000              4.529701E-01  
5.500000              4.508883E-01  
5.540000              4.489378E-01  
5.580000              4.471407E-01  
5.620000              4.453214E-01  
5.660000              4.435677E-01  
5.700000              4.417919E-01  
5.740000              4.399282E-01  
5.780000              4.381082E-01  
5.820000              4.363099E-01  
5.860000              4.345115E-01  
5.900000              4.327567E-01  
5.940000              4.309359E-01  
5.980000              4.291369E-01  
6.020000              4.274036E-01  
6.060000              4.259333E-01  
6.100000              4.243751E-01  
6.140000              4.227510E-01  
6.180000              4.210389E-01  
6.220000              4.194583E-01  
6.260000              4.178336E-01  
6.300000              4.161210E-01  
6.340000              4.144960E-01  
6.380000              4.130026E-01  
6.420000              4.113992E-01  
6.460000              4.096859E-01  
6.500000              4.079725E-01  
6.540000              4.061930E-01  
6.580000              4.045890E-01  
6.620000              4.029189E-01  
6.660000              4.011829E-01  
6.700000              3.997101E-01  
6.740000              3.983469E-01  
6.780000              3.969178E-01  
6.820000              3.954006E-01  
6.860000              3.938833E-01  
6.900000              3.924977E-01  
6.940000              3.911118E-01  
6.980000              3.896819E-01  
7.020000              3.882300E-01  
7.060000              3.867339E-01  
7.100000              3.851937E-01  
7.140000              3.836314E-01  
7.180000              3.822008E-01  
7.220000              3.808140E-01  
7.260000              3.793611E-01  
7.300000              3.777982E-01  
7.340000              3.762791E-01  
7.380000              3.746500E-01  
7.420000              3.731965E-01  
7.460000              3.717429E-01  
7.500000              3.702451E-01  
7.540000              3.689670E-01  
7.580000              3.677108E-01  
7.620000              3.664544E-01  
7.660000              3.650441E-01  
7.700000              3.636116E-01  
7.740000              3.622229E-01  
7.780000              3.607021E-01  
7.820000              3.594451E-01  
7.860000              3.580560E-01  
7.900000              3.567547E-01  
7.940000              3.554093E-01  
7.980000              3.541078E-01  
8.020000              3.528061E-01  
8.060000              3.513943E-01  
8.100000              3.500704E-01  
8.140000              3.487903E-01  
8.180000              3.474001E-01  
8.220000              3.461198E-01  
8.260000              3.447733E-01  
8.300000              3.434487E-01  
8.340000              3.422120E-01  
8.380000              3.408211E-01  
8.420000              3.395401E-01  
8.460000              3.382369E-01  
8.500000              3.369557E-01  
8.540000              3.356743E-01  
8.580000              3.343708E-01  
8.620000              3.332432E-01  
8.660000              3.319614E-01  
8.700000              3.306355E-01  
8.740000              3.294195E-01  
8.780000              3.282034E-01  
8.820000              3.269651E-01  
8.860000              3.258588E-01  
8.900000              3.245983E-01  
8.940000              3.233817E-01  
8.980000              3.222090E-01  
9.020000              3.211023E-01  
9.060000              3.200394E-01  
9.100000              3.188444E-01  
9.140000              3.177153E-01  
9.180000              3.165640E-01  
9.220000              3.155889E-01  
9.260000              3.144814E-01  
9.300000              3.134180E-01  
9.340000              3.125306E-01  
9.380000              3.116652E-01  
9.420000              3.107997E-01  
9.460000              3.098680E-01  
9.500000              3.089803E-01  
9.540000              3.080044E-01  
9.580000              3.070063E-01  
9.620000              3.058539E-01  
9.660000              3.049217E-01  
9.700000              3.037911E-01  
9.740000              3.027265E-01  
9.780000              3.017499E-01  
9.820000              3.006190E-01  
9.860000              2.996422E-01  
9.900000              2.986213E-01  
9.940000              2.975561E-01  
9.980000              2.963145E-01  
10.020000             2.952491E-01  
10.060000             2.941396E-01  
10.100000             2.930299E-01  
10.140000             2.920744E-01  
10.180000             2.911410E-01  
10.220000             2.903397E-01  
10.260000             2.896266E-01  
10.300000             2.886929E-01  
10.340000             2.879134E-01  
10.380000             2.870457E-01  
10.420000             2.862661E-01  
10.460000             2.853540E-01  
10.500000             2.844860E-01  
10.540000             2.836400E-01  
10.580000             2.828600E-01  
10.620000             2.819918E-01  
10.660000             2.811896E-01  
10.700000             2.803212E-01  
10.740000             2.793423E-01  
10.780000             2.784957E-01  
10.820000             2.775608E-01  
10.860000             2.765817E-01  
10.900000             2.756245E-01  
10.940000             2.746672E-01  
10.980000             2.736656E-01  
11.020000             2.727744E-01  
11.060000             2.718389E-01  
11.100000             2.709254E-01  
11.140000             2.700118E-01  
11.180000             2.690097E-01  
11.220000             2.681180E-01  
11.260000             2.672041E-01  
11.300000             2.663343E-01  
11.340000             2.653982E-01  
11.380000             2.645503E-01  
11.420000             2.637244E-01  
11.460000             2.627658E-01  
11.500000             2.619398E-01  
11.540000             2.609810E-01  
11.580000             2.599781E-01  
11.620000             2.589971E-01  
11.660000             2.580601E-01  
11.700000             2.569464E-01  
11.740000             2.559872E-01  
11.780000             2.549395E-01  
11.820000             2.538917E-01  
11.860000             2.529543E-01  
11.900000             2.519063E-01  
11.940000             2.509245E-01  
11.980000             2.499205E-01  
12.020000             2.489827E-01  
12.060000             2.479563E-01  
12.100000             2.470626E-01  
12.140000             2.461245E-01  
12.180000             2.451421E-01  
12.220000             2.440490E-01  
12.260000             2.429780E-01  
12.300000             2.419953E-01  
12.340000             2.410567E-01  
12.380000             2.400517E-01  
12.420000             2.390908E-01  
12.460000             2.382182E-01  
12.500000             2.373235E-01  
12.540000             2.364508E-01  
12.580000             2.353568E-01  
12.620000             2.345061E-01  
12.660000             2.336773E-01  
12.700000             2.326273E-01  
12.740000             2.317541E-01  
12.780000             2.309915E-01  
12.820000             2.302067E-01  
12.860000             2.294218E-01  
12.900000             2.285704E-01  
12.940000             2.278296E-01  
12.980000             2.272215E-01  
13.020000             2.265248E-01  
13.060000             2.259166E-01  
13.100000             2.252419E-01  
13.140000             2.246557E-01  
13.180000             2.241801E-01  
13.220000             2.235716E-01  
13.260000             2.230295E-01  
13.300000             2.224652E-01  
13.340000             2.217901E-01  
13.380000             2.211371E-01  
13.420000             2.205505E-01  
13.460000             2.198752E-01  
13.500000             2.193106E-01  
13.540000             2.187681E-01  
13.580000             2.181148E-01  
13.620000             2.175057E-01  
13.660000             2.170073E-01  
13.700000             2.164424E-01  
13.740000             2.157667E-01  
13.780000             2.151130E-01  
13.820000             2.145036E-01  
13.860000             2.139606E-01  
13.900000             2.134176E-01  
13.940000             2.128302E-01  
13.980000             2.122649E-01  
14.020000             2.117217E-01  
14.060000             2.111562E-01  
14.100000             2.105464E-01  
14.140000             2.098922E-01  
14.180000             2.093931E-01  
14.220000             2.087831E-01  
14.260000             2.081731E-01  
14.300000             2.076516E-01  
14.340000             2.070636E-01  
14.380000             2.065421E-01  
14.420000             2.060648E-01  
14.460000             2.055875E-01  
14.500000             2.051323E-01  
14.540000             2.046992E-01  
14.580000             2.042440E-01  
14.620000             2.038552E-01  
14.660000             2.033776E-01  
14.700000             2.029222E-01  
14.740000             2.024889E-01  
14.780000             2.020112E-01  
14.820000             2.014669E-01  
14.860000             2.010335E-01  
14.900000             2.006666E-01  
14.940000             2.002109E-01  
14.980000             1.999327E-01  
15.020000             1.994325E-01  
15.060000             1.989989E-01  
15.100000             1.987649E-01  
15.140000             1.983978E-01  
15.180000             1.980084E-01  
15.220000             1.976634E-01  
15.260000             1.972296E-01  
15.300000             1.967513E-01  
15.340000             1.962508E-01  
15.380000             1.958168E-01  
15.420000             1.954050E-01  
15.460000             1.949931E-01  
15.500000             1.945146E-01  
15.540000             1.939694E-01  
15.580000             1.934686E-01  
15.620000             1.930122E-01  
15.660000             1.925779E-01  
15.700000             1.920991E-01  
15.740000             1.915537E-01  
15.780000             1.910526E-01  
15.820000             1.904849E-01  
15.860000             1.900281E-01  
15.900000             1.895269E-01  
15.940000             1.890034E-01  
15.980000             1.884799E-01  
16.020000             1.879119E-01  
16.060000             1.872549E-01  
16.100000             1.865979E-01  
16.140000             1.859408E-01  
16.180000             1.851947E-01  
16.220000             1.845597E-01  
16.260000             1.839024E-01  
16.300000             1.832673E-01  
16.340000             1.826988E-01  
16.380000             1.821079E-01  
16.420000             1.814504E-01  
16.460000             1.807705E-01  
16.500000             1.802018E-01  
16.540000             1.795440E-01  
16.580000             1.789751E-01  
16.620000             1.785173E-01  
16.660000             1.780151E-01  
16.700000             1.774460E-01  
16.740000             1.767657E-01  
16.780000             1.762632E-01  
16.820000             1.757607E-01  
16.860000             1.753249E-01  
16.900000             1.749112E-01  
16.940000             1.744086E-01  
16.980000             1.739504E-01  
17.020000             1.734254E-01  
17.060000             1.729003E-01  
17.100000             1.725087E-01  
17.140000             1.720948E-01  
17.180000             1.717031E-01  
17.220000             1.711555E-01  
17.260000             1.706970E-01  
17.300000             1.702607E-01  
17.340000             1.698465E-01  
17.380000             1.692765E-01  
17.420000             1.687510E-01  
17.460000             1.682700E-01  
17.500000             1.677221E-01  
17.540000             1.674413E-01  
17.580000             1.669601E-01  
17.620000             1.663898E-01  
17.660000             1.658640E-01  
17.700000             1.653381E-01  
17.740000             1.648790E-01  
17.780000             1.644866E-01  
17.820000             1.640942E-01  
17.860000             1.637240E-01  
17.900000             1.633315E-01  
17.940000             1.629390E-01  
17.980000             1.624796E-01  
18.020000             1.620647E-01  
18.060000             1.616498E-01  
18.100000             1.613016E-01  
18.140000             1.609757E-01  
18.180000             1.605829E-01  
18.220000             1.601901E-01  
18.260000             1.598418E-01  
18.300000             1.594266E-01  
18.340000             1.590783E-01  
18.380000             1.586184E-01  
18.420000             1.582254E-01  
18.460000             1.578324E-01  
18.500000             1.574170E-01  
18.540000             1.569793E-01  
18.580000             1.565415E-01  
18.620000             1.560368E-01  
18.660000             1.555767E-01  
18.700000             1.551611E-01  
18.740000             1.546785E-01  
18.780000             1.543520E-01  
18.820000             1.540478E-01  
18.860000             1.536097E-01  
18.900000             1.532831E-01  
18.940000             1.528449E-01  
18.980000             1.524067E-01  
19.020000             1.519016E-01  
19.060000             1.515079E-01  
19.100000             1.511365E-01  
19.140000             1.506758E-01  
19.180000             1.502151E-01  
19.220000             1.498212E-01  
19.260000             1.493827E-01  
19.300000             1.489219E-01  
19.340000             1.485725E-01  
19.380000             1.482454E-01  
19.420000             1.479183E-01  
19.460000             1.476581E-01  
19.500000             1.473532E-01  
19.540000             1.471153E-01  
19.580000             1.468997E-01  
19.620000             1.466840E-01  
19.660000             1.464683E-01  
19.700000             1.462749E-01  
19.740000             1.461038E-01  
19.780000             1.458211E-01  
19.820000             1.456500E-01  
19.860000             1.454119E-01  
19.900000             1.451960E-01  
19.940000             1.449802E-01  
19.980000             1.447197E-01  
20.020000             1.445931E-01  
20.060000             1.443772E-01  
20.100000             1.442729E-01  
20.140000             1.441240E-01  
20.180000             1.439527E-01  
20.220000             1.437144E-01  
20.260000             1.435654E-01  
20.300000             1.435281E-01  
20.340000             1.433791E-01  
20.380000             1.432524E-01  
20.420000             1.432150E-01  
20.460000             1.432000E-01  
20.500000             1.430957E-01  
20.540000             1.429913E-01  
20.580000             1.428422E-01  
20.620000             1.427378E-01  
20.660000             1.424993E-01  
20.700000             1.423501E-01  
20.740000             1.421563E-01  
20.780000             1.418506E-01  
20.820000             1.416567E-01  
20.860000             1.414404E-01  
20.900000             1.413136E-01  
20.940000             1.411420E-01  
20.980000             1.408809E-01  
21.020000             1.406645E-01  
21.060000             1.404929E-01  
21.100000             1.403212E-01  
21.140000             1.402613E-01  
21.180000             1.400672E-01  
21.220000             1.399402E-01  
21.260000             1.399027E-01  
21.300000             1.397533E-01  
21.340000             1.396039E-01  
21.380000             1.394321E-01  
21.420000             1.393498E-01  
21.460000             1.393122E-01  
21.500000             1.392075E-01  
21.540000             1.391252E-01  
21.580000             1.390204E-01  
21.620000             1.388933E-01  
21.660000             1.388333E-01  
21.700000             1.387062E-01  
21.740000             1.385566E-01  
21.780000             1.384071E-01  
21.820000             1.382351E-01  
21.860000             1.381303E-01  
21.900000             1.379136E-01  
21.940000             1.377640E-01  
21.980000             1.376591E-01  
22.020000             1.375095E-01  
22.060000             1.374270E-01  
22.100000             1.373221E-01  
22.140000             1.370605E-01  
22.180000             1.369107E-01  
22.220000             1.368730E-01  
22.260000             1.367681E-01  
22.300000             1.365959E-01  
22.340000             1.364462E-01  
22.380000             1.362516E-01  
22.420000             1.361018E-01  
22.460000             1.359072E-01  
22.500000             1.358918E-01  
22.540000             1.358540E-01  
22.580000             1.357041E-01  
22.620000             1.355543E-01  
22.660000             1.354044E-01  
22.700000             1.352993E-01  
22.740000             1.352615E-01  
22.780000             1.350443E-01  
22.820000             1.349616E-01  
22.860000             1.348341E-01  
22.900000             1.347962E-01  
22.940000             1.346238E-01  
22.980000             1.344290E-01  
23.020000             1.341893E-01  
23.060000             1.340393E-01  
23.100000             1.337548E-01  
23.140000             1.336047E-01  
23.180000             1.333650E-01  
23.220000             1.331476E-01  
23.260000             1.329975E-01  
23.300000             1.328249E-01  
23.340000             1.326075E-01  
23.380000             1.326143E-01  
23.420000             1.324866E-01  
23.460000             1.324486E-01  
23.500000             1.323657E-01  
23.540000             1.322379E-01  
23.580000             1.321325E-01  
23.620000             1.320945E-01  
23.660000             1.319667E-01  
23.700000             1.318388E-01  
23.740000             1.316661E-01  
23.780000             1.314485E-01  
23.820000             1.313206E-01  
23.860000             1.311703E-01  
23.900000             1.310873E-01  
23.940000             1.310267E-01  
23.980000             1.308539E-01  
24.020000             1.306811E-01  
24.060000             1.304634E-01  
24.100000             1.302232E-01  
24.140000             1.300503E-01  
24.180000             1.299672E-01  
24.220000             1.297494E-01  
24.260000             1.295764E-01  
24.300000             1.295607E-01  
24.340000             1.293652E-01  
24.380000             1.291698E-01  
24.420000             1.289070E-01  
24.460000             1.285992E-01  
24.500000             1.284037E-01  
24.540000             1.280959E-01  
24.580000             1.279003E-01  
24.620000             1.276823E-01  
24.660000             1.274193E-01  
24.700000             1.271338E-01  
24.740000             1.269382E-01  
24.780000             1.266301E-01  
24.820000             1.262772E-01  
24.860000             1.259466E-01  
24.900000             1.255936E-01  
24.940000             1.251731E-01  
24.980000             1.249099E-01  
25.020000             1.247140E-01  
25.060000             1.243608E-01  
25.100000             1.240975E-01  
25.140000             1.236319E-01  
25.180000             1.232561E-01  
25.220000             1.229028E-01  
25.260000             1.226394E-01  
25.300000             1.222410E-01  
25.340000             1.218651E-01  
25.380000             1.216015E-01  
25.420000             1.214279E-01  
25.460000             1.212768E-01  
25.500000             1.210581E-01  
25.540000             1.207945E-01  
25.580000             1.205534E-01  
25.620000             1.203122E-01  
25.660000             1.201159E-01  
25.700000             1.198522E-01  
25.740000             1.195659E-01  
25.780000             1.194146E-01  
25.820000             1.191508E-01  
25.860000             1.187520E-01  
25.900000             1.184881E-01  
25.940000             1.182467E-01  
25.980000             1.179603E-01  
26.020000             1.176964E-01  
26.060000             1.175224E-01  
26.100000             1.172809E-01  
26.140000             1.171744E-01  
26.180000             1.170004E-01  
26.220000             1.168039E-01  
26.260000             1.165398E-01  
26.300000             1.163432E-01  
26.340000             1.161691E-01  
26.380000             1.159500E-01  
26.420000             1.157758E-01  
26.460000             1.155116E-01  
26.500000             1.152699E-01  
26.540000             1.150056E-01  
26.580000             1.147638E-01  
26.620000             1.145671E-01  
26.660000             1.143703E-01  
26.700000             1.141284E-01  
26.740000             1.139992E-01  
26.780000             1.136897E-01  
26.820000             1.134253E-01  
26.860000             1.132960E-01  
26.900000             1.130315E-01  
26.940000             1.128571E-01  
26.980000             1.125925E-01  
27.020000             1.124181E-01  
27.060000             1.122436E-01  
27.100000             1.120016E-01  
27.140000             1.117144E-01  
27.180000             1.114722E-01  
27.220000             1.112977E-01  
27.260000             1.111006E-01  
27.300000             1.109035E-01  
27.340000             1.106613E-01  
27.380000             1.102612E-01  
27.420000             1.100189E-01  
27.460000             1.097315E-01  
27.500000             1.094892E-01  
27.540000             1.092017E-01  
27.580000             1.089142E-01  
27.620000             1.086493E-01  
27.660000             1.084519E-01  
27.700000             1.082094E-01  
27.740000             1.079895E-01  
27.780000             1.077470E-01  
27.820000             1.075496E-01  
27.860000             1.072844E-01  
27.900000             1.071321E-01  
27.940000             1.068895E-01  
27.980000             1.066468E-01  
28.020000             1.064493E-01  
28.060000             1.061615E-01  
28.100000             1.059414E-01  
28.140000             1.057437E-01  
28.180000             1.055461E-01  
28.220000             1.053710E-01  
28.260000             1.051734E-01  
28.300000             1.050660E-01  
28.340000             1.048683E-01  
28.380000             1.046931E-01  
28.420000             1.044728E-01  
28.460000             1.042751E-01  
28.500000             1.041224E-01  
28.540000             1.039472E-01  
28.580000             1.037268E-01  
28.620000             1.035741E-01  
28.660000             1.033989E-01  
28.700000             1.032687E-01  
28.740000             1.031386E-01  
28.780000             1.030084E-01  
28.820000             1.029686E-01  
28.860000             1.028836E-01  
28.900000             1.027534E-01  
28.940000             1.026910E-01  
28.980000             1.025833E-01  
29.020000             1.024757E-01  
29.060000             1.022777E-01  
29.100000             1.021248E-01  
29.140000             1.019945E-01  
29.180000             1.018191E-01  
29.220000             1.016662E-01  
29.260000             1.014907E-01  
29.300000             1.012473E-01  
29.340000             1.010040E-01  
29.380000             1.007606E-01  
29.420000             1.005624E-01  
29.460000             1.004094E-01  
29.500000             1.003242E-01  
29.540000             1.000807E-01  
29.580000             9.995024E-02  
29.620000             9.979717E-02  
29.660000             9.973452E-02  
29.700000             9.960403E-02  
29.740000             9.947352E-02  
29.780000             9.938823E-02  
29.820000             9.925770E-02  
29.860000             9.919501E-02  
29.900000             9.920016E-02  
29.940000             9.927317E-02  
29.980000             9.930095E-02  
30.020000             9.932873E-02  
30.060000             9.931126E-02  
30.100000             9.933905E-02  
30.140000             9.925371E-02  
30.180000             9.923624E-02  
30.220000             9.924140E-02  
30.260000             9.924655E-02  
30.300000             9.918382E-02  
30.340000             9.912109E-02  
30.380000             9.917150E-02  
30.420000             9.910876E-02  
30.460000             9.909127E-02  
30.500000             9.907379E-02  
30.540000             9.898839E-02  
30.580000             9.892563E-02  
30.620000             9.888549E-02  
30.660000             9.884535E-02  
30.700000             9.885049E-02  
30.740000             9.881035E-02  
30.780000             9.879284E-02  
30.820000             9.873005E-02  
30.860000             9.880312E-02  
30.900000             9.880826E-02  
30.940000             9.885869E-02  
30.980000             9.884118E-02  
31.020000             9.891428E-02  
31.060000             9.898738E-02  
31.100000             9.899252E-02  
31.140000             9.902033E-02  
31.180000             9.904813E-02  
31.220000             9.907594E-02  
31.260000             9.917173E-02  
31.300000             9.926752E-02  
31.340000             9.931801E-02  
31.380000             9.936850E-02  
31.420000             9.937367E-02  
31.460000             9.942417E-02  
31.500000             9.952000E-02  
31.540000             9.966117E-02  
31.580000             9.977970E-02  
31.620000             9.978489E-02  
31.660000             9.972208E-02  
31.700000             9.977261E-02  
31.740000             9.973246E-02  
31.780000             9.973765E-02  
31.820000             9.972017E-02  
31.860000             9.974804E-02  
31.900000             9.982126E-02  
31.940000             9.978111E-02  
31.980000             9.983166E-02  
32.020000             9.976882E-02  
32.060000             9.975133E-02  
32.100000             9.973385E-02  
32.140000             9.978441E-02  
32.180000             9.981229E-02  
32.220000             9.986286E-02  
32.260000             9.989075E-02  
32.300000             9.991865E-02  
32.340000             9.990116E-02  
32.380000             9.988368E-02  
32.420000             9.986619E-02  
32.460000             9.996217E-02  
32.500000             9.999007E-02  
32.540000             9.997259E-02  
32.580000             9.990971E-02  
32.620000             9.984682E-02  
32.660000             9.973853E-02  
32.700000             9.965293E-02  
32.740000             9.961272E-02  
32.780000             9.954981E-02  
32.820000             9.946418E-02  
32.860000             9.935585E-02  
32.900000             9.929291E-02  
32.940000             9.922997E-02  
32.980000             9.914431E-02  
33.020000             9.910406E-02  
33.060000             9.906381E-02  
33.100000             9.897813E-02  
33.140000             9.891515E-02  
33.180000             9.885217E-02  
33.220000             9.874374E-02  
33.260000             9.865803E-02  
33.300000             9.854959E-02  
33.340000             9.846385E-02  
33.380000             9.835539E-02  
33.420000             9.829236E-02  
33.460000             9.825204E-02  
33.500000             9.807538E-02  
33.540000             9.783052E-02  
33.580000             9.765382E-02  
33.620000             9.752255E-02  
33.660000             9.736854E-02  
33.700000             9.728271E-02  
33.740000             9.712867E-02  
33.780000             9.699735E-02  
33.820000             9.684328E-02  
33.860000             9.668920E-02  
33.900000             9.644415E-02  
33.940000             9.619908E-02  
33.980000             9.595399E-02  
34.020000             9.573161E-02  
34.060000             9.553195E-02  
34.100000             9.530952E-02  
34.140000             9.517804E-02  
34.180000             9.495557E-02  
34.220000             9.475583E-02  
34.260000             9.448782E-02  
34.300000             9.419704E-02  
34.340000             9.386073E-02  
34.380000             9.363814E-02  
34.420000             9.339277E-02  
34.460000             9.305637E-02  
34.500000             9.276544E-02  
34.540000             9.249723E-02  
34.580000             9.218348E-02  
34.620000             9.184694E-02  
34.660000             9.155589E-02  
34.700000             9.126480E-02  
34.740000             9.092817E-02  
34.780000             9.059149E-02  
34.820000             9.027755E-02  
34.860000             8.998634E-02  
34.900000             8.962680E-02  
34.940000             8.928998E-02  
34.980000             8.899867E-02  
35.020000             8.870733E-02  
35.060000             8.834765E-02  
35.100000             8.803347E-02  
35.140000             8.776481E-02  
35.180000             8.749611E-02  
35.220000             8.722739E-02  
35.260000             8.698142E-02  
35.300000             8.671264E-02  
35.340000             8.646662E-02  
35.380000             8.622056E-02  
35.420000             8.595171E-02  
35.460000             8.570560E-02  
35.500000             8.539112E-02  
35.540000             8.505383E-02  
35.580000             8.476206E-02  
35.620000             8.444749E-02  
35.660000             8.417845E-02  
35.700000             8.393218E-02  
35.740000             8.357192E-02  
35.780000             8.332559E-02  
35.820000             8.310203E-02  
35.860000             8.281006E-02  
35.900000             8.251805E-02  
35.940000             8.227162E-02  
35.980000             8.200235E-02  
36.020000             8.184706E-02  
36.060000             8.157774E-02  
36.100000             8.121720E-02  
36.140000             8.085662E-02  
36.180000             8.054160E-02  
36.220000             8.024936E-02  
36.260000             7.986586E-02  
36.300000             7.955075E-02  
36.340000             7.923560E-02  
36.380000             7.892042E-02  
36.420000             7.858240E-02  
36.460000             7.826715E-02  
36.500000             7.792905E-02  
36.540000             7.763655E-02  
36.580000             7.732121E-02  
36.620000             7.700582E-02  
36.660000             7.666759E-02  
36.700000             7.630651E-02  
36.740000             7.603667E-02  
36.780000             7.572115E-02  
36.820000             7.547407E-02  
36.860000             7.520414E-02  
36.900000             7.507114E-02  
36.940000             7.486964E-02  
36.980000             7.466811E-02  
37.020000             7.453506E-02  
37.060000             7.437916E-02  
37.100000             7.420041E-02  
37.140000             7.399881E-02  
37.180000             7.372869E-02  
37.220000             7.341287E-02  
37.260000             7.321120E-02  
37.300000             7.298667E-02  
37.340000             7.278496E-02  
37.380000             7.262890E-02  
37.420000             7.244999E-02  
37.460000             7.222537E-02  
37.500000             7.206926E-02  
37.540000             7.186744E-02  
37.580000             7.168845E-02  
37.620000             7.144090E-02  
37.660000             7.128472E-02  
37.700000             7.105997E-02  
37.740000             7.094944E-02  
37.780000             7.074751E-02  
37.820000             7.049984E-02  
37.860000             7.027501E-02  
37.900000             7.011871E-02  
37.940000             6.996240E-02  
37.980000             6.985178E-02  
38.020000             6.971830E-02  
38.060000             6.953908E-02  
38.100000             6.929126E-02  
38.140000             6.906628E-02  
38.180000             6.886414E-02  
38.220000             6.868484E-02  
38.260000             6.850552E-02  
38.300000             6.832618E-02  
38.340000             6.821543E-02  
38.380000             6.808179E-02  
38.420000             6.790241E-02  
38.460000             6.774587E-02  
38.500000             6.758932E-02  
38.540000             6.745562E-02  
38.580000             6.732192E-02  
38.620000             6.709669E-02  
38.660000             6.696295E-02  
38.700000             6.676056E-02  
38.740000             6.655814E-02  
38.780000             6.642435E-02  
38.820000             6.631343E-02  
38.860000             6.617961E-02  
38.900000             6.604578E-02  
38.940000             6.595771E-02  
38.980000             6.584674E-02  
39.020000             6.575864E-02  
39.060000             6.562476E-02  
39.100000             6.546798E-02  
39.140000             6.537985E-02  
39.180000             6.529171E-02  
39.220000             6.522646E-02  
39.260000             6.518410E-02  
39.300000             6.507304E-02  
39.340000             6.496197E-02  
39.380000             6.491959E-02  
39.420000             6.490010E-02  
39.460000             6.472030E-02  
39.500000             6.463210E-02  
39.540000             6.449807E-02  
39.580000             6.443275E-02  
39.620000             6.441323E-02  
39.660000             6.437080E-02  
39.700000             6.435128E-02  
39.740000             6.424011E-02  
39.780000             6.419767E-02  
39.820000             6.415522E-02  
39.860000             6.418151E-02  
39.900000             6.420781E-02  
39.940000             6.423410E-02  
39.980000             6.419165E-02  
40.020000             6.417211E-02  
40.060000             6.417548E-02  
40.100000             6.420178E-02  
40.140000             6.429685E-02  
40.180000             6.446070E-02  
40.220000             6.464749E-02  
40.260000             6.476552E-02  
40.300000             6.486064E-02  
40.340000             6.493284E-02  
40.380000             6.500505E-02  
40.420000             6.510019E-02  
40.460000             6.521828E-02  
40.500000             6.531345E-02  
40.540000             6.540862E-02  
40.580000             6.545794E-02  
40.620000             6.550726E-02  
40.660000             6.555659E-02  
40.700000             6.558298E-02  
40.740000             6.560938E-02  
40.780000             6.554401E-02  
40.820000             6.559335E-02  
40.860000             6.568858E-02  
40.900000             6.573793E-02  
40.940000             6.574139E-02  
40.980000             6.576781E-02  
41.020000             6.577127E-02  
41.060000             6.591244E-02  
41.100000             6.589296E-02  
41.140000             6.589643E-02  
41.180000             6.587695E-02  
41.220000             6.592633E-02  
41.260000             6.590685E-02  
41.300000             6.579554E-02  
41.340000             6.575309E-02  
41.380000             6.573360E-02  
41.420000             6.571411E-02  
41.460000             6.569461E-02  
41.500000             6.569807E-02  
41.540000             6.565561E-02  
41.580000             6.561314E-02  
41.620000             6.554770E-02  
41.660000             6.552819E-02  
41.700000             6.537086E-02  
41.740000             6.530540E-02  
41.780000             6.519398E-02  
41.820000             6.526634E-02  
41.860000             6.517789E-02  
41.900000             6.506645E-02  
41.940000             6.497797E-02  
41.980000             6.484353E-02  
42.020000             6.466312E-02  
42.060000             6.452865E-02  
42.100000             6.437119E-02  
42.140000             6.414476E-02  
42.180000             6.398726E-02  
42.220000             6.389869E-02  
42.260000             6.376415E-02  
42.300000             6.360660E-02  
42.340000             6.342605E-02  
42.380000             6.326847E-02  
42.420000             6.311087E-02  
42.460000             6.293026E-02  
42.500000             6.284161E-02  
42.540000             6.275295E-02  
42.580000             6.261829E-02  
42.620000             6.257560E-02  
42.660000             6.250991E-02  
42.700000             6.242121E-02  
42.740000             6.230950E-02  
42.780000             6.224379E-02  
42.820000             6.220107E-02  
42.860000             6.211234E-02  
42.900000             6.202360E-02  
42.940000             6.202687E-02  
42.980000             6.198413E-02  
43.020000             6.198741E-02  
43.060000             6.189864E-02  
43.100000             6.183288E-02  
43.140000             6.183614E-02  
43.180000             6.181640E-02  
43.220000             6.181966E-02  
43.260000             6.191500E-02  
43.300000             6.191827E-02  
43.340000             6.201362E-02  
43.380000             6.201690E-02  
43.420000             6.195111E-02  
43.460000             6.183927E-02  
43.500000             6.186557E-02  
43.540000             6.177674E-02  
43.580000             6.168790E-02  
43.620000             6.166813E-02  
43.660000             6.167139E-02  
43.700000             6.160556E-02  
43.740000             6.153973E-02  
43.780000             6.151995E-02  
43.820000             6.150017E-02  
43.860000             6.141128E-02  
43.900000             6.134542E-02  
43.940000             6.134867E-02  
43.980000             6.132888E-02  
44.020000             6.130908E-02  
44.060000             6.122016E-02  
44.100000             6.124644E-02  
44.140000             6.115751E-02  
44.180000             6.109161E-02  
44.220000             6.102571E-02  
44.260000             6.095980E-02  
44.300000             6.091692E-02  
44.340000             6.087405E-02  
44.380000             6.087727E-02  
44.420000             6.083439E-02  
44.460000             6.074540E-02  
44.500000             6.063334E-02  
44.540000             6.061350E-02  
44.580000             6.052448E-02  
44.620000             6.036627E-02  
44.660000             6.027723E-02  
44.700000             6.023430E-02  
44.740000             6.016831E-02  
44.780000             6.007924E-02  
44.820000             5.996710E-02  
44.860000             5.987802E-02  
44.900000             5.985812E-02  
44.940000             5.979209E-02  
44.980000             5.970298E-02  
45.020000             5.949851E-02  
45.060000             5.929402E-02  
45.100000             5.918180E-02  
45.140000             5.911571E-02  
45.180000             5.891116E-02  
45.220000             5.875275E-02  
45.260000             5.864048E-02  
45.300000             5.852819E-02  
45.340000             5.836973E-02  
45.380000             5.830358E-02  
45.420000             5.807584E-02  
45.460000             5.794042E-02  
45.500000             5.775881E-02  
45.540000             5.760027E-02  
45.580000             5.734936E-02  
45.620000             5.709842E-02  
45.660000             5.687055E-02  
45.700000             5.666575E-02  
45.740000             5.650711E-02  
45.780000             5.625607E-02  
45.820000             5.600501E-02  
45.860000             5.577702E-02  
45.900000             5.557210E-02  
45.940000             5.536716E-02  
45.980000             5.511600E-02  
46.020000             5.484172E-02  
46.060000             5.454430E-02  
46.100000             5.426995E-02  
46.140000             5.408799E-02  
46.180000             5.392912E-02  
46.220000             5.377023E-02  
46.260000             5.358822E-02  
46.300000             5.340619E-02  
46.340000             5.322413E-02  
46.380000             5.308829E-02  
46.420000             5.288309E-02  
46.460000             5.274721E-02  
46.500000             5.258820E-02  
46.540000             5.242917E-02  
46.580000             5.229324E-02  
46.620000             5.206483E-02  
46.660000             5.188263E-02  
46.700000             5.170041E-02  
46.740000             5.154129E-02  
46.780000             5.140528E-02  
46.820000             5.129238E-02  
46.860000             5.120260E-02  
46.900000             5.111281E-02  
46.940000             5.097675E-02  
46.980000             5.091006E-02  
47.020000             5.079711E-02  
47.060000             5.066101E-02  
47.100000             5.050176E-02  
47.140000             5.038877E-02  
47.180000             5.027576E-02  
47.220000             5.013961E-02  
47.260000             5.007286E-02  
47.300000             4.998296E-02  
47.340000             4.982362E-02  
47.380000             4.968741E-02  
47.420000             4.955119E-02  
47.460000             4.941495E-02  
47.500000             4.927870E-02  
47.540000             4.918873E-02  
47.580000             4.902930E-02  
47.620000             4.886986E-02  
47.660000             4.866409E-02  
47.700000             4.852777E-02  
47.740000             4.829881E-02  
47.780000             4.806983E-02  
47.820000             4.791029E-02  
47.860000             4.770442E-02  
47.900000             4.756800E-02  
47.940000             4.740841E-02  
47.980000             4.720248E-02  
48.020000             4.704286E-02  
48.060000             4.683689E-02  
48.100000             4.667722E-02  
48.140000             4.658704E-02  
48.180000             4.645052E-02  
48.220000             4.629081E-02  
48.260000             4.615425E-02  
48.300000             4.604085E-02  
48.340000             4.590427E-02  
48.380000             4.586037E-02  
48.420000             4.567741E-02  
48.460000             4.567984E-02  
48.500000             4.561274E-02  
48.540000             4.552245E-02  
48.580000             4.543216E-02  
48.620000             4.536503E-02  
48.660000             4.522835E-02  
48.700000             4.513803E-02  
48.740000             4.502451E-02  
48.780000             4.491098E-02  
48.820000             4.477425E-02  
48.860000             4.466069E-02  
48.900000             4.452393E-02  
48.940000             4.438716E-02  
48.980000             4.427356E-02  
49.020000             4.425272E-02  
49.060000             4.416230E-02  
49.100000             4.400229E-02  
49.140000             4.393504E-02  
49.180000             4.377499E-02  
49.220000             4.370773E-02  
49.260000             4.361725E-02  
49.300000             4.348036E-02  
49.340000             4.336667E-02  
49.380000             4.325295E-02  
49.420000             4.316244E-02  
49.460000             4.309512E-02  
49.500000             4.300458E-02  
49.540000             4.293724E-02  
49.580000             4.286990E-02  
49.620000             4.280255E-02  
49.660000             4.273519E-02  
49.700000             4.266783E-02  
49.740000             4.262367E-02  
49.780000             4.255629E-02  
49.820000             4.251213E-02  
49.860000             4.244474E-02  
49.900000             4.240056E-02  
49.940000             4.230993E-02  
49.980000             4.228897E-02  
50.020000             4.226800E-02  
50.060000             4.227025E-02  
50.100000             4.229573E-02  
50.140000             4.236767E-02  
50.180000             4.239316E-02  
50.220000             4.241865E-02  
50.260000             4.246738E-02  
50.300000             4.246965E-02  
50.340000             4.247191E-02  
50.380000             4.242771E-02  
50.420000             4.236026E-02  
50.460000             4.231605E-02  
50.500000             4.224859E-02  
50.540000             4.222760E-02  
50.580000             4.220661E-02  
50.620000             4.213914E-02  
50.660000             4.211814E-02  
50.700000             4.209715E-02  
50.740000             4.209939E-02  
50.780000             4.207839E-02  
50.820000             4.205739E-02  
50.860000             4.210614E-02  
50.900000             4.217814E-02  
50.940000             4.234316E-02  
50.980000             4.243844E-02  
51.020000             4.253372E-02  
51.060000             4.262902E-02  
51.100000             4.265456E-02  
51.140000             4.272661E-02  
51.180000             4.284519E-02  
51.220000             4.291727E-02  
51.260000             4.296608E-02  
51.300000             4.308470E-02  
51.340000             4.313353E-02  
51.380000             4.320563E-02  
51.420000             4.318467E-02  
51.460000             4.321025E-02  
51.500000             4.321256E-02  
51.540000             4.326141E-02  
51.580000             4.331027E-02  
51.620000             4.328931E-02  
51.660000             4.324507E-02  
51.700000             4.320083E-02  
51.740000             4.320314E-02  
51.780000             4.322873E-02  
51.820000             4.320776E-02  
51.860000             4.321007E-02  
51.900000             4.323566E-02  
51.940000             4.321469E-02  
51.980000             4.321700E-02  
52.020000             4.319603E-02  
52.060000             4.312847E-02  
52.100000             4.308420E-02  
52.140000             4.308651E-02  
52.180000             4.304223E-02  
52.220000             4.316099E-02  
52.260000             4.309342E-02  
52.300000             4.311902E-02  
52.340000             4.307474E-02  
52.380000             4.305374E-02  
52.420000             4.307935E-02  
52.460000             4.308165E-02  
52.500000             4.313056E-02  
52.540000             4.308626E-02  
52.580000             4.315848E-02  
52.620000             4.323070E-02  
52.660000             4.318640E-02  
52.700000             4.321202E-02  
52.740000             4.323764E-02  
52.780000             4.321665E-02  
52.820000             4.326558E-02  
52.860000             4.329121E-02  
52.900000             4.331684E-02  
52.940000             4.336579E-02  
52.980000             4.336811E-02  
53.020000             4.339375E-02  
53.060000             4.339608E-02  
53.100000             4.346836E-02  
53.140000             4.342405E-02  
53.180000             4.342637E-02  
53.220000             4.340538E-02  
53.260000             4.338438E-02  
53.300000             4.345668E-02  
53.340000             4.352899E-02  
53.380000             4.360131E-02  
53.420000             4.362697E-02  
53.460000             4.365264E-02  
53.500000             4.370164E-02  
53.540000             4.375065E-02  
53.580000             4.386967E-02  
53.620000             4.391869E-02  
53.660000             4.396772E-02  
53.700000             4.411011E-02  
53.740000             4.422918E-02  
53.780000             4.434825E-02  
53.820000             4.451403E-02  
53.860000             4.463313E-02  
53.900000             4.475225E-02  
53.940000             4.482469E-02  
53.980000             4.494383E-02  
54.020000             4.499293E-02  
54.060000             4.504205E-02  
54.100000             4.511452E-02  
54.140000             4.507023E-02  
54.180000             4.507265E-02  
54.220000             4.512177E-02  
54.260000             4.510084E-02  
54.300000             4.517333E-02  
54.340000             4.519911E-02  
54.380000             4.527162E-02  
54.420000             4.525068E-02  
54.460000             4.525311E-02  
54.500000             4.527890E-02  
54.540000             4.532806E-02  
54.580000             4.526039E-02  
54.620000             4.519272E-02  
54.660000             4.512504E-02  
54.700000             4.510409E-02  
54.740000             4.505977E-02  
54.780000             4.506219E-02  
54.820000             4.501786E-02  
54.860000             4.499690E-02  
54.900000             4.511620E-02  
54.940000             4.514200E-02  
54.980000             4.523794E-02  
55.020000             4.526374E-02  
55.060000             4.521941E-02  
55.100000             4.522184E-02  
55.140000             4.524765E-02  
55.180000             4.522670E-02  
55.220000             4.525251E-02  
55.260000             4.520817E-02  
55.300000             4.523398E-02  
55.340000             4.528319E-02  
55.380000             4.530902E-02  
55.420000             4.535824E-02  
55.460000             4.540746E-02  
55.500000             4.545669E-02  
55.540000             4.552932E-02  
55.580000             4.564876E-02  
55.620000             4.565121E-02  
55.660000             4.574726E-02  
55.700000             4.586673E-02  
55.740000             4.596280E-02  
55.780000             4.605889E-02  
55.820000             4.615498E-02  
55.860000             4.625109E-02  
55.900000             4.632380E-02  
55.940000             4.641993E-02  
55.980000             4.649265E-02  
56.020000             4.656539E-02  
56.060000             4.663813E-02  
56.100000             4.675771E-02  
56.140000             4.683047E-02  
56.180000             4.692665E-02  
56.220000             4.706968E-02  
56.260000             4.721272E-02  
56.300000             4.726210E-02  
56.340000             4.731149E-02  
56.380000             4.738430E-02  
56.420000             4.743370E-02  
56.460000             4.752995E-02  
56.500000             4.764964E-02  
56.540000             4.772249E-02  
56.580000             4.774849E-02  
56.620000             4.782135E-02  
56.660000             4.787078E-02  
56.700000             4.799052E-02  
56.740000             4.808684E-02  
56.780000             4.813630E-02  
56.820000             4.820920E-02  
56.860000             4.828211E-02  
56.900000             4.840190E-02  
56.940000             4.852171E-02  
56.980000             4.857121E-02  
57.020000             4.862071E-02  
57.060000             4.874055E-02  
57.100000             4.888384E-02  
57.140000             4.895681E-02  
57.180000             4.907669E-02  
57.220000             4.926693E-02  
57.260000             4.943373E-02  
57.300000             4.960056E-02  
57.340000             4.974395E-02  
57.380000             4.986390E-02  
57.420000             5.000732E-02  
57.460000             5.010384E-02  
57.500000             5.020037E-02  
57.540000             5.032037E-02  
57.580000             5.048731E-02  
57.620000             5.063080E-02  
57.660000             5.075084E-02  
57.700000             5.094129E-02  
57.740000             5.106137E-02  
57.780000             5.115799E-02  
57.820000             5.132502E-02  
57.860000             5.144514E-02  
57.900000             5.154179E-02  
57.940000             5.161498E-02  
57.980000             5.175861E-02  
58.020000             5.185530E-02  
58.060000             5.195199E-02  
58.100000             5.204870E-02  
58.140000             5.214542E-02  
58.180000             5.224215E-02  
58.220000             5.231541E-02  
58.260000             5.243564E-02  
58.300000             5.250892E-02  
58.340000             5.258221E-02  
58.380000             5.270247E-02  
58.420000             5.277578E-02  
58.460000             5.277862E-02  
58.500000             5.285194E-02  
58.540000             5.292526E-02  
58.580000             5.297510E-02  
58.620000             5.311892E-02  
58.660000             5.321577E-02  
58.700000             5.326563E-02  
58.740000             5.338599E-02  
58.780000             5.345937E-02  
58.820000             5.353275E-02  
58.860000             5.362965E-02  
58.900000             5.363254E-02  
58.940000             5.368244E-02  
58.980000             5.377936E-02  
59.020000             5.382928E-02  
59.060000             5.394972E-02  
59.100000             5.395263E-02  
59.140000             5.404959E-02  
59.180000             5.409953E-02  
59.220000             5.424352E-02  
59.260000             5.434051E-02  
59.300000             5.448453E-02  
59.340000             5.455802E-02  
59.380000             5.460800E-02  
59.420000             5.472855E-02  
59.460000             5.473150E-02  
59.500000             5.478150E-02  
59.540000             5.492560E-02  
59.580000             5.506971E-02  
59.620000             5.516679E-02  
59.660000             5.516977E-02  
59.700000             5.519628E-02  
59.740000             5.522279E-02  
59.780000             5.527283E-02  
59.820000             5.532288E-02  
59.860000             5.542000E-02  
59.900000             5.547007E-02  
59.940000             5.554367E-02  
59.980000             5.564082E-02  
60.020000             5.569090E-02  
60.060000             5.569391E-02  
60.100000             5.579109E-02  
60.140000             5.588827E-02  
60.180000             5.593838E-02  
60.220000             5.605912E-02  
60.260000             5.615634E-02  
60.300000             5.627711E-02  
60.340000             5.642144E-02  
60.380000             5.649514E-02  
60.420000             5.661595E-02  
60.460000             5.671322E-02  
60.500000             5.685761E-02  
60.540000             5.688424E-02  
60.580000             5.698154E-02  
60.620000             5.703173E-02  
60.660000             5.715261E-02  
60.700000             5.720282E-02  
60.740000             5.732372E-02  
60.780000             5.737395E-02  
60.820000             5.742418E-02  
60.860000             5.749798E-02  
60.900000             5.757179E-02  
60.940000             5.759847E-02  
60.980000             5.762516E-02  
61.020000             5.762828E-02  
61.060000             5.767854E-02  
61.100000             5.770523E-02  
61.140000             5.773193E-02  
61.180000             5.773506E-02  
61.220000             5.773818E-02  
61.260000             5.774131E-02  
61.300000             5.779159E-02  
61.340000             5.777114E-02  
61.380000             5.777427E-02  
61.420000             5.775381E-02  
61.460000             5.778053E-02  
61.500000             5.787800E-02  
61.540000             5.788113E-02  
61.580000             5.793144E-02  
61.620000             5.795817E-02  
61.660000             5.791413E-02  
61.700000             5.794086E-02  
61.740000             5.794400E-02  
61.780000             5.789995E-02  
61.820000             5.785589E-02  
61.860000             5.792982E-02  
61.900000             5.793296E-02  
61.940000             5.795970E-02  
61.980000             5.798644E-02  
62.020000             5.803678E-02  
62.060000             5.801633E-02  
62.100000             5.806668E-02  
62.140000             5.806983E-02  
62.180000             5.807298E-02  
62.220000             5.805252E-02  
62.260000             5.812649E-02  
62.300000             5.815325E-02  
62.340000             5.820363E-02  
62.380000             5.825401E-02  
62.420000             5.830440E-02  
62.460000             5.828395E-02  
62.500000             5.828711E-02  
62.540000             5.836112E-02  
62.580000             5.838791E-02  
62.620000             5.836746E-02  
62.660000             5.844149E-02  
62.700000             5.844466E-02  
62.740000             5.840058E-02  
62.780000             5.838012E-02  
62.820000             5.831241E-02  
62.860000             5.817380E-02  
62.900000             5.810607E-02  
62.940000             5.801469E-02  
62.980000             5.792331E-02  
63.020000             5.783192E-02  
63.060000             5.771688E-02  
63.100000             5.767274E-02  
63.140000             5.760496E-02  
63.180000             5.751353E-02  
63.220000             5.739845E-02  
63.260000             5.725972E-02  
63.300000             5.716826E-02  
63.340000             5.705314E-02  
63.380000             5.684343E-02  
63.420000             5.670464E-02  
63.460000             5.656583E-02  
63.500000             5.645066E-02  
63.540000             5.631182E-02  
63.580000             5.614932E-02  
63.620000             5.601045E-02  
63.660000             5.584791E-02  
63.700000             5.566170E-02  
63.740000             5.554644E-02  
63.780000             5.538385E-02  
63.820000             5.517392E-02  
63.860000             5.505861E-02  
63.900000             5.489597E-02  
63.940000             5.478064E-02  
63.980000             5.471262E-02  
64.020000             5.459727E-02  
64.060000             5.452923E-02  
64.100000             5.446119E-02  
64.140000             5.436947E-02  
64.180000             5.427774E-02  
64.220000             5.428069E-02  
64.260000             5.421262E-02  
64.300000             5.416822E-02  
64.340000             5.417116E-02  
64.380000             5.412675E-02  
64.420000             5.415338E-02  
64.460000             5.415632E-02  
64.500000             5.411190E-02  
64.540000             5.404380E-02  
64.580000             5.395200E-02  
64.620000             5.393125E-02  
64.660000             5.388681E-02  
64.700000             5.386605E-02  
64.740000             5.386899E-02  
64.780000             5.387192E-02  
64.820000             5.389854E-02  
64.860000             5.387778E-02  
64.900000             5.388071E-02  
64.940000             5.390734E-02  
64.980000             5.391027E-02  
65.020000             5.393690E-02  
65.060000             5.401094E-02  
65.100000             5.408498E-02  
65.140000             5.406422E-02  
65.180000             5.409086E-02  
65.220000             5.416492E-02  
65.260000             5.416787E-02  
65.300000             5.424194E-02  
65.340000             5.426860E-02  
65.380000             5.429527E-02  
65.420000             5.434565E-02  
65.460000             5.439603E-02  
65.500000             5.437528E-02  
65.540000             5.435452E-02  
65.580000             5.433377E-02  
65.620000             5.431301E-02  
65.660000             5.424481E-02  
65.700000             5.427149E-02  
65.740000             5.420328E-02  
65.780000             5.408762E-02  
65.820000             5.399567E-02  
65.860000             5.387998E-02  
65.900000             5.385919E-02  
65.940000             5.376722E-02  
65.980000             5.377015E-02  
66.020000             5.370189E-02  
66.060000             5.365735E-02  
66.100000             5.354161E-02  
66.140000             5.344959E-02  
66.180000             5.345250E-02  
66.220000             5.336047E-02  
66.260000             5.322095E-02  
66.300000             5.317637E-02  
66.340000             5.303683E-02  
66.380000             5.292101E-02  
66.420000             5.285266E-02  
66.460000             5.273682E-02  
66.500000             5.264471E-02  
66.540000             5.252885E-02  
66.580000             5.241297E-02  
66.620000             5.239208E-02  
66.660000             5.229993E-02  
66.700000             5.216027E-02  
66.740000             5.199684E-02  
66.780000             5.190466E-02  
66.820000             5.174119E-02  
66.860000             5.160147E-02  
66.900000             5.148549E-02  
66.940000             5.132198E-02  
66.980000             5.125349E-02  
67.020000             5.113748E-02  
67.060000             5.097392E-02  
67.100000             5.083411E-02  
67.140000             5.076558E-02  
67.180000             5.062575E-02  
67.220000             5.048589E-02  
67.260000             5.044111E-02  
67.300000             5.032500E-02  
67.340000             5.028020E-02  
67.380000             5.021163E-02  
67.420000             5.009549E-02  
67.460000             5.000312E-02  
67.500000             4.991073E-02  
67.540000             4.984212E-02  
67.580000             4.974972E-02  
67.620000             4.975243E-02  
67.660000             4.966002E-02  
67.700000             4.961516E-02  
67.740000             4.952273E-02  
67.780000             4.945407E-02  
67.820000             4.936162E-02  
67.860000             4.931673E-02  
67.900000             4.927184E-02  
67.940000             4.917937E-02  
67.980000             4.913446E-02  
68.020000             4.904197E-02  
68.060000             4.899705E-02  
68.100000             4.895214E-02  
68.140000             4.888341E-02  
68.180000             4.881469E-02  
68.220000             4.872215E-02  
68.260000             4.858199E-02  
68.300000             4.851323E-02  
68.340000             4.839686E-02  
68.380000             4.832808E-02  
68.420000             4.821168E-02  
68.460000             4.811908E-02  
68.500000             4.793123E-02  
68.540000             4.783860E-02  
68.580000             4.772215E-02  
68.620000             4.758187E-02  
68.660000             4.744157E-02  
68.700000             4.737272E-02  
68.740000             4.728003E-02  
68.780000             4.716352E-02  
68.820000             4.707081E-02  
68.860000             4.700192E-02  
68.900000             4.688537E-02  
68.940000             4.674499E-02  
68.980000             4.660459E-02  
69.020000             4.653565E-02  
69.060000             4.641905E-02  
69.100000             4.627861E-02  
69.140000             4.623348E-02  
69.180000             4.609301E-02  
69.220000             4.592870E-02  
69.260000             4.581203E-02  
69.300000             4.564768E-02  
69.340000             4.557867E-02  
69.380000             4.546196E-02  
69.420000             4.544061E-02  
69.460000             4.532389E-02  
69.500000             4.525484E-02  
69.540000             4.511425E-02  
69.580000             4.499749E-02  
69.620000             4.495226E-02  
69.660000             4.481163E-02  
69.700000             4.471868E-02  
69.740000             4.462573E-02  
69.780000             4.450891E-02  
69.820000             4.441593E-02  
69.860000             4.434680E-02  
69.900000             4.425380E-02  
69.940000             4.418465E-02  
69.980000             4.411550E-02  
70.020000             4.399861E-02  
70.060000             4.385785E-02  
70.100000             4.376480E-02  
70.140000             4.360015E-02  
70.180000             4.345935E-02  
70.220000             4.334239E-02  
70.260000             4.322543E-02  
70.300000             4.310845E-02  
70.340000             4.296759E-02  
70.380000             4.282671E-02  
70.420000             4.270969E-02  
70.460000             4.254491E-02  
70.500000             4.238011E-02  
70.540000             4.221529E-02  
70.580000             4.205045E-02  
70.620000             4.190948E-02  
70.660000             4.184013E-02  
70.700000             4.181854E-02  
70.740000             4.179695E-02  
70.780000             4.165594E-02  
70.820000             4.153879E-02  
70.860000             4.139774E-02  
70.900000             4.125667E-02  
70.940000             4.116338E-02  
70.980000             4.107007E-02  
71.020000             4.100064E-02  
71.060000             4.088342E-02  
71.100000             4.074229E-02  
71.140000             4.064893E-02  
71.180000             4.048388E-02  
71.220000             4.036660E-02  
71.260000             4.029711E-02  
71.300000             4.010810E-02  
71.340000             3.999079E-02  
71.380000             3.984955E-02  
71.420000             3.975612E-02  
71.460000             3.966267E-02  
71.500000             3.949748E-02  
71.540000             3.940401E-02  
71.580000             3.928662E-02  
71.620000             3.916921E-02  
71.660000             3.905179E-02  
71.700000             3.898219E-02  
71.740000             3.886475E-02  
71.780000             3.872337E-02  
71.820000             3.865374E-02  
71.860000             3.858410E-02  
71.900000             3.853838E-02  
71.940000             3.842088E-02  
71.980000             3.830337E-02  
72.020000             3.818584E-02  
72.060000             3.809223E-02  
72.100000             3.802254E-02  
72.140000             3.797677E-02  
72.180000             3.795492E-02  
72.220000             3.795701E-02  
72.260000             3.793516E-02  
72.300000             3.786544E-02  
72.340000             3.779571E-02  
72.380000             3.777385E-02  
72.420000             3.768017E-02  
72.460000             3.761042E-02  
72.500000             3.754066E-02  
72.540000             3.751879E-02  
72.580000             3.742507E-02  
72.620000             3.737924E-02  
72.660000             3.733340E-02  
72.700000             3.728756E-02  
72.740000             3.724171E-02  
72.780000             3.714795E-02  
72.820000             3.710209E-02  
72.860000             3.705622E-02  
72.900000             3.701035E-02  
72.940000             3.696448E-02  
72.980000             3.694255E-02  
73.020000             3.689667E-02  
73.060000             3.682682E-02  
73.100000             3.678092E-02  
73.140000             3.668709E-02  
73.180000             3.664118E-02  
73.220000             3.659527E-02  
73.260000             3.654935E-02  
73.300000             3.652739E-02  
73.340000             3.652940E-02  
73.380000             3.645950E-02  
73.420000             3.636562E-02  
73.460000             3.631967E-02  
73.500000             3.627372E-02  
73.540000             3.625175E-02  
73.580000             3.620579E-02  
73.620000             3.627972E-02  
73.660000             3.628171E-02  
73.700000             3.625973E-02  
73.740000             3.626173E-02  
73.780000             3.623974E-02  
73.820000             3.624174E-02  
73.860000             3.624373E-02  
73.900000             3.631769E-02  
73.940000             3.634368E-02  
73.980000             3.639367E-02  
74.020000             3.639567E-02  
74.060000             3.644566E-02  
74.100000             3.651966E-02  
74.140000             3.654566E-02  
74.180000             3.659567E-02  
74.220000             3.666968E-02  
74.260000             3.674370E-02  
74.300000             3.684173E-02  
74.340000             3.693977E-02  
74.380000             3.708583E-02  
74.420000             3.715989E-02  
74.460000             3.725797E-02  
74.500000             3.738006E-02  
74.540000             3.747816E-02  
74.580000             3.755225E-02  
74.620000             3.762636E-02  
74.660000             3.767646E-02  
74.700000             3.777460E-02  
74.740000             3.784873E-02  
74.780000             3.789885E-02  
74.820000             3.799701E-02  
74.860000             3.809519E-02  
74.900000             3.819337E-02  
74.940000             3.831559E-02  
74.980000             3.838977E-02  
75.020000             3.846397E-02  
75.060000             3.853817E-02  
75.100000             3.858835E-02  
75.140000             3.866257E-02  
75.180000             3.873679E-02  
75.220000             3.876296E-02  
75.260000             3.881316E-02  
75.300000             3.886338E-02  
75.340000             3.891359E-02  
75.380000             3.893978E-02  
75.420000             3.894193E-02  
75.460000             3.896811E-02  
75.500000             3.899431E-02  
75.540000             3.906859E-02  
75.580000             3.909479E-02  
75.620000             3.914504E-02  
75.660000             3.914720E-02  
75.700000             3.914936E-02  
75.740000             3.919962E-02  
75.780000             3.920178E-02  
75.820000             3.920395E-02  
75.860000             3.918206E-02  
75.900000             3.918423E-02  
75.940000             3.916233E-02  
75.980000             3.914044E-02  
76.020000             3.916666E-02  
76.060000             3.914477E-02  
76.100000             3.912287E-02  
76.140000             3.912503E-02  
76.180000             3.903094E-02  
76.220000             3.898496E-02  
76.260000             3.898712E-02  
76.300000             3.896521E-02  
76.340000             3.894329E-02  
76.380000             3.892137E-02  
76.420000             3.887538E-02  
76.460000             3.882939E-02  
76.500000             3.878338E-02  
76.540000             3.876145E-02  
76.580000             3.873952E-02  
76.620000             3.874166E-02  
76.660000             3.871972E-02  
76.700000             3.872186E-02  
76.740000             3.869992E-02  
76.780000             3.865390E-02  
76.820000             3.860787E-02  
76.860000             3.856183E-02  
76.900000             3.853987E-02  
76.940000             3.851792E-02  
76.980000             3.849596E-02  
77.020000             3.847400E-02  
77.060000             3.850022E-02  
77.100000             3.850235E-02  
77.140000             3.848038E-02  
77.180000             3.848251E-02  
77.220000             3.843645E-02  
77.260000             3.836627E-02  
77.300000             3.829610E-02  
77.340000             3.822591E-02  
77.380000             3.815571E-02  
77.420000             3.810962E-02  
77.460000             3.806351E-02  
77.500000             3.799330E-02  
77.540000             3.792308E-02  
77.580000             3.792518E-02  
77.620000             3.790316E-02  
77.660000             3.788115E-02  
77.700000             3.781091E-02  
77.740000             3.781300E-02  
77.780000             3.781509E-02  
77.820000             3.781719E-02  
77.860000             3.784340E-02  
77.900000             3.784550E-02  
77.940000             3.787172E-02  
77.980000             3.787381E-02  
78.020000             3.787591E-02  
78.060000             3.790214E-02  
78.100000             3.792836E-02  
78.140000             3.795459E-02  
78.180000             3.800496E-02  
78.220000             3.803120E-02  
78.260000             3.808157E-02  
78.300000             3.813195E-02  
78.340000             3.815820E-02  
78.380000             3.820859E-02  
78.420000             3.825898E-02  
78.460000             3.833352E-02  
78.500000             3.838393E-02  
78.540000             3.843434E-02  
78.580000             3.846061E-02  
78.620000             3.846274E-02  
78.660000             3.851317E-02  
78.700000             3.853945E-02  
78.740000             3.856574E-02  
78.780000             3.859203E-02  
78.820000             3.864247E-02  
78.860000             3.869292E-02  
78.900000             3.874337E-02  
78.940000             3.881799E-02  
78.980000             3.884430E-02  
79.020000             3.887061E-02  
79.060000             3.889693E-02  
79.100000             3.899573E-02  
79.140000             3.907038E-02  
79.180000             3.909671E-02  
79.220000             3.912305E-02  
79.260000             3.917355E-02  
79.300000             3.924823E-02  
79.340000             3.932291E-02  
79.380000             3.934927E-02  
79.420000             3.942397E-02  
79.460000             3.947450E-02  
79.500000             3.945252E-02  
79.540000             3.943053E-02  
79.580000             3.940854E-02  
79.620000             3.941073E-02  
79.660000             3.936456E-02  
79.700000             3.931838E-02  
79.740000             3.927220E-02  
79.780000             3.922602E-02  
79.820000             3.915564E-02  
79.860000             3.908526E-02  
79.900000             3.901486E-02  
79.940000             3.894446E-02  
79.980000             3.887405E-02  
80.020000             3.877945E-02  
80.060000             3.868483E-02  
80.100000             3.859020E-02  
80.140000             3.851976E-02  
80.180000             3.842511E-02  
80.220000             3.833045E-02  
80.260000             3.825998E-02  
80.300000             3.818950E-02  
80.340000             3.814322E-02  
80.380000             3.809693E-02  
80.420000             3.805064E-02  
80.460000             3.800434E-02  
80.500000             3.795804E-02  
80.540000             3.791173E-02  
80.580000             3.788963E-02  
80.620000             3.781910E-02  
80.660000             3.779699E-02  
80.700000             3.765380E-02  
80.740000             3.763168E-02  
80.780000             3.753690E-02  
80.820000             3.749055E-02  
80.860000             3.741998E-02  
80.900000             3.730095E-02  
80.940000             3.723036E-02  
80.980000             3.715976E-02  
81.020000             3.711337E-02  
81.060000             3.709121E-02  
81.100000             3.704482E-02  
81.140000             3.702265E-02  
81.180000             3.702471E-02  
81.220000             3.702677E-02  
81.260000             3.700460E-02  
81.300000             3.700666E-02  
81.340000             3.700872E-02  
81.380000             3.698654E-02  
81.420000             3.696436E-02  
81.460000             3.696642E-02  
81.500000             3.696847E-02  
81.540000             3.697053E-02  
81.580000             3.697259E-02  
81.620000             3.699889E-02  
81.660000             3.697671E-02  
81.700000             3.697877E-02  
81.740000             3.698083E-02  
81.780000             3.698288E-02  
81.820000             3.696069E-02  
81.860000             3.693850E-02  
81.900000             3.691630E-02  
81.940000             3.689410E-02  
81.980000             3.689615E-02  
82.020000             3.689821E-02  
82.060000             3.694879E-02  
82.100000             3.697511E-02  
82.140000             3.695290E-02  
82.180000             3.697923E-02  
82.220000             3.700555E-02  
82.260000             3.700762E-02  
82.300000             3.700968E-02  
82.340000             3.701174E-02  
82.380000             3.701380E-02  
82.420000             3.701587E-02  
82.460000             3.699366E-02  
82.500000             3.701999E-02  
82.540000             3.709489E-02  
82.580000             3.704840E-02  
82.620000             3.707474E-02  
82.660000             3.710109E-02  
82.700000             3.720029E-02  
82.740000             3.722665E-02  
82.780000             3.725301E-02  
82.820000             3.727937E-02  
82.860000             3.728145E-02  
82.900000             3.730782E-02  
82.940000             3.733419E-02  
82.980000             3.733627E-02  
83.020000             3.736265E-02  
83.060000             3.741332E-02  
83.100000             3.746400E-02  
83.140000             3.751469E-02  
83.180000             3.756538E-02  
83.220000             3.759177E-02  
83.260000             3.761817E-02  
83.300000             3.762027E-02  
83.340000             3.771958E-02  
83.380000             3.777030E-02  
83.420000             3.779672E-02  
83.460000             3.784744E-02  
83.500000             3.784955E-02  
83.540000             3.787598E-02  
83.580000             3.790240E-02  
83.620000             3.792883E-02  
83.660000             3.795527E-02  
83.700000             3.800602E-02  
83.740000             3.805677E-02  
83.780000             3.810754E-02  
83.820000             3.820695E-02  
83.860000             3.825772E-02  
83.900000             3.833283E-02  
83.940000             3.835929E-02  
83.980000             3.841009E-02  
84.020000             3.846089E-02  
84.060000             3.856035E-02  
84.100000             3.858683E-02  
84.140000             3.866198E-02  
84.180000             3.873714E-02  
84.220000             3.881231E-02  
84.260000             3.886314E-02  
84.300000             3.898700E-02  
84.340000             3.908653E-02  
84.380000             3.916173E-02  
84.420000             3.921260E-02  
84.460000             3.923913E-02  
84.500000             3.938739E-02  
84.540000             3.941393E-02  
84.580000             3.946483E-02  
84.620000             3.949138E-02  
84.660000             3.956664E-02  
84.700000             3.959320E-02  
84.740000             3.966847E-02  
84.780000             3.974374E-02  
84.820000             3.977032E-02  
84.860000             3.982126E-02  
84.900000             3.989655E-02  
84.940000             3.997186E-02  
84.980000             4.002282E-02  
85.020000             4.007378E-02  
85.060000             4.012474E-02  
85.100000             4.015135E-02  
85.140000             4.015360E-02  
85.180000             4.015585E-02  
85.220000             4.018246E-02  
85.260000             4.023345E-02  
85.300000             4.028444E-02  
85.340000             4.035981E-02  
85.380000             4.043519E-02  
85.420000             4.051058E-02  
85.460000             4.053722E-02  
85.500000             4.058824E-02  
85.540000             4.059051E-02  
85.580000             4.061717E-02  
85.620000             4.064382E-02  
85.660000             4.067048E-02  
85.700000             4.069714E-02  
85.740000             4.069942E-02  
85.780000             4.072609E-02  
85.820000             4.082592E-02  
85.860000             4.087699E-02  
85.900000             4.100123E-02  
85.940000             4.105231E-02  
85.980000             4.107901E-02  
86.020000             4.110570E-02  
86.060000             4.115680E-02  
86.100000             4.120790E-02  
86.140000             4.128341E-02  
86.180000             4.133452E-02  
86.220000             4.141004E-02  
86.260000             4.141236E-02  
86.300000             4.143909E-02  
86.340000             4.149022E-02  
86.380000             4.146814E-02  
86.420000             4.154369E-02  
86.460000             4.154602E-02  
86.500000             4.152394E-02  
86.540000             4.150185E-02  
86.580000             4.150418E-02  
86.620000             4.148209E-02  
86.660000             4.141117E-02  
86.700000             4.138907E-02  
86.740000             4.136697E-02  
86.780000             4.134487E-02  
86.820000             4.129834E-02  
86.860000             4.127624E-02  
86.900000             4.127855E-02  
86.940000             4.128087E-02  
86.980000             4.128318E-02  
87.020000             4.126107E-02  
87.060000             4.119009E-02  
87.100000             4.116797E-02  
87.140000             4.112141E-02  
87.180000             4.109929E-02  
87.220000             4.107716E-02  
87.260000             4.105502E-02  
87.300000             4.103289E-02  
87.340000             4.096187E-02  
87.380000             4.093973E-02  
87.420000             4.091758E-02  
87.460000             4.089544E-02  
87.500000             4.092218E-02  
87.540000             4.090003E-02  
87.580000             4.087787E-02  
87.620000             4.090462E-02  
87.660000             4.080911E-02  
87.700000             4.076250E-02  
87.740000             4.076479E-02  
87.780000             4.081599E-02  
87.820000             4.084274E-02  
87.860000             4.082057E-02  
87.900000             4.079840E-02  
87.940000             4.077624E-02  
87.980000             4.070514E-02  
88.020000             4.068296E-02  
88.060000             4.066078E-02  
88.100000             4.068753E-02  
88.140000             4.068982E-02  
88.180000             4.069211E-02  
88.220000             4.071886E-02  
88.260000             4.074562E-02  
88.300000             4.072344E-02  
88.340000             4.067678E-02  
88.380000             4.063011E-02  
88.420000             4.060792E-02  
88.460000             4.058572E-02  
88.500000             4.049009E-02  
88.540000             4.039444E-02  
88.580000             4.037222E-02  
88.620000             4.032553E-02  
88.660000             4.027882E-02  
88.700000             4.020763E-02  
88.740000             4.011193E-02  
88.780000             4.004072E-02  
88.820000             3.999399E-02  
88.860000             3.992276E-02  
88.900000             3.985152E-02  
88.940000             3.973129E-02  
88.980000             3.970903E-02  
89.020000             3.953978E-02  
89.060000             3.941950E-02  
89.100000             3.929922E-02  
89.140000             3.920342E-02  
89.180000             3.908311E-02  
89.220000             3.893828E-02  
89.260000             3.886695E-02  
89.300000             3.872209E-02  
89.340000             3.865074E-02  
89.380000             3.853037E-02  
89.420000             3.843449E-02  
89.460000             3.833860E-02  
89.500000             3.816916E-02  
89.540000             3.802421E-02  
89.580000             3.792828E-02  
89.620000             3.788138E-02  
89.660000             3.776091E-02  
89.700000             3.766495E-02  
89.740000             3.754446E-02  
89.780000             3.744848E-02  
89.820000             3.732796E-02  
89.860000             3.720743E-02  
89.900000             3.708688E-02  
89.940000             3.696632E-02  
89.980000             3.682122E-02  
90.020000             3.665156E-02  
90.060000             3.653096E-02  
90.100000             3.636127E-02  
90.140000             3.626517E-02  
90.180000             3.614452E-02  
90.220000             3.602386E-02  
90.260000             3.592773E-02  
90.300000             3.575796E-02  
90.340000             3.566180E-02  
90.380000             3.554109E-02  
90.420000             3.537127E-02  
90.460000             3.515233E-02  
90.500000             3.503157E-02  
90.540000             3.488624E-02  
90.580000             3.466724E-02  
90.620000             3.442366E-02  
90.660000             3.415550E-02  
90.700000             3.398553E-02  
90.740000             3.371732E-02  
90.780000             3.352275E-02  
90.820000             3.335272E-02  
90.860000             3.315811E-02  
90.900000             3.293891E-02  
90.940000             3.269513E-02  
90.980000             3.247588E-02  
91.020000             3.218291E-02  
91.060000             3.193904E-02  
91.100000             3.169514E-02  
91.140000             3.145122E-02  
91.180000             3.118269E-02  
91.220000             3.091414E-02  
91.260000             3.071928E-02  
91.300000             3.040151E-02  
91.340000             3.020660E-02  
91.380000             2.998709E-02  
91.420000             2.976756E-02  
91.460000             2.959716E-02  
91.500000             2.945133E-02  
91.540000             2.930548E-02  
91.580000             2.918420E-02  
91.620000             2.896456E-02  
91.660000             2.876948E-02  
91.700000             2.854979E-02  
91.740000             2.837926E-02  
91.780000             2.818411E-02  
91.820000             2.798894E-02  
91.860000             2.776916E-02  
91.900000             2.764774E-02  
91.940000             2.747711E-02  
91.980000             2.730646E-02  
92.020000             2.711119E-02  
92.060000             2.696510E-02  
92.100000             2.684360E-02  
92.140000             2.672209E-02  
92.180000             2.657595E-02  
92.220000             2.642980E-02  
92.260000             2.635746E-02  
92.300000             2.628512E-02  
92.340000             2.608970E-02  
92.380000             2.596810E-02  
92.420000             2.582188E-02  
92.460000             2.565102E-02  
92.500000             2.548014E-02  
92.540000             2.528462E-02  
92.580000             2.513832E-02  
92.620000             2.496738E-02  
92.660000             2.479643E-02  
92.700000             2.469933E-02  
92.740000             2.455296E-02  
92.780000             2.443121E-02  
92.820000             2.435870E-02  
92.860000             2.418767E-02  
92.900000             2.416440E-02  
92.940000             2.419040E-02  
92.980000             2.411786E-02  
93.020000             2.402068E-02  
93.060000             2.394813E-02  
93.100000             2.390020E-02  
93.140000             2.387692E-02  
93.180000             2.380434E-02  
93.220000             2.375640E-02  
93.260000             2.373310E-02  
93.300000             2.366050E-02  
93.340000             2.358790E-02  
93.380000             2.358923E-02  
93.420000             2.349197E-02  
93.460000             2.346865E-02  
93.500000             2.339601E-02  
93.540000             2.337268E-02  
93.580000             2.330004E-02  
93.620000             2.325204E-02  
93.660000             2.315472E-02  
93.700000             2.310671E-02  
93.740000             2.298471E-02  
93.780000             2.288736E-02  
93.820000             2.279000E-02  
93.860000             2.269263E-02  
93.900000             2.259525E-02  
93.940000             2.249785E-02  
93.980000             2.240045E-02  
94.020000             2.222901E-02  
94.060000             2.213158E-02  
94.100000             2.208349E-02  
94.140000             2.196136E-02  
94.180000             2.188857E-02  
94.220000             2.184046E-02  
94.260000             2.174297E-02  
94.300000             2.167016E-02  
94.340000             2.154798E-02  
94.380000             2.140110E-02  
94.420000             2.132825E-02  
94.460000             2.118134E-02  
94.500000             2.108379E-02  
94.540000             2.098622E-02  
94.580000             2.086396E-02  
94.620000             2.071699E-02  
94.660000             2.059469E-02  
94.700000             2.049708E-02  
94.740000             2.044885E-02  
94.780000             2.040061E-02  
94.820000             2.037707E-02  
94.860000             2.032882E-02  
94.900000             2.023117E-02  
94.940000             2.008409E-02  
94.980000             1.996171E-02  
95.020000             1.983931E-02  
95.060000             1.979102E-02  
95.100000             1.969330E-02  
95.140000             1.964500E-02  
95.180000             1.954727E-02  
95.220000             1.937538E-02  
95.260000             1.925291E-02  
95.300000             1.910570E-02  
95.340000             1.900791E-02  
95.380000             1.891012E-02  
95.420000             1.883703E-02  
95.460000             1.873921E-02  
95.500000             1.864138E-02  
95.540000             1.856826E-02  
95.580000             1.844569E-02  
95.620000             1.837255E-02  
95.660000             1.829941E-02  
95.700000             1.820153E-02  
95.740000             1.815310E-02  
95.780000             1.807993E-02  
95.820000             1.798202E-02  
95.860000             1.788410E-02  
95.900000             1.778616E-02  
95.940000             1.768822E-02  
95.980000             1.761500E-02  
96.020000             1.756652E-02  
96.060000             1.749329E-02  
96.100000             1.739531E-02  
96.140000             1.732206E-02  
96.180000             1.722405E-02  
96.220000             1.715078E-02  
96.260000             1.707751E-02  
96.300000             1.697947E-02  
96.340000             1.690618E-02  
96.380000             1.680813E-02  
96.420000             1.678433E-02  
96.460000             1.668625E-02  
96.500000             1.661292E-02  
96.540000             1.658911E-02  
96.580000             1.651577E-02  
96.620000             1.644242E-02  
96.660000             1.636906E-02  
96.700000             1.634523E-02  
96.740000             1.627186E-02  
96.780000             1.617371E-02  
96.820000             1.607555E-02  
96.860000             1.600215E-02  
96.900000             1.595352E-02  
96.940000             1.588010E-02  
96.980000             1.580668E-02  
97.020000             1.573325E-02  
97.060000             1.568459E-02  
97.100000             1.563592E-02  
97.140000             1.558725E-02  
97.180000             1.553857E-02  
97.220000             1.548989E-02  
97.260000             1.549077E-02  
97.300000             1.549165E-02  
97.340000             1.546774E-02  
97.380000             1.544384E-02  
97.420000             1.539513E-02  
97.460000             1.537122E-02  
97.500000             1.532250E-02  
97.540000             1.527379E-02  
97.580000             1.520027E-02  
97.620000             1.515154E-02  
97.660000             1.510280E-02  
97.700000             1.507886E-02  
97.740000             1.507972E-02  
97.780000             1.503097E-02  
97.820000             1.505663E-02  
97.860000             1.505749E-02  
97.900000             1.505835E-02  
97.940000             1.505921E-02  
97.980000             1.506006E-02  
98.020000             1.506092E-02  
98.060000             1.506178E-02  
98.100000             1.503782E-02  
98.140000             1.506350E-02  
98.180000             1.508917E-02  
98.220000             1.509003E-02  
98.260000             1.509089E-02  
98.300000             1.514140E-02  
98.340000             1.516708E-02  
98.380000             1.524242E-02  
98.420000             1.531777E-02  
98.460000             1.541795E-02  
98.500000             1.546849E-02  
98.540000             1.549420E-02  
98.580000             1.561925E-02  
98.620000             1.564497E-02  
98.660000             1.572037E-02  
98.700000             1.574610E-02  
98.740000             1.582151E-02  
98.780000             1.589693E-02  
98.820000             1.597236E-02  
98.860000             1.604779E-02  
98.900000             1.617292E-02  
98.940000             1.624838E-02  
98.980000             1.629900E-02  
99.020000             1.634963E-02  
99.060000             1.640026E-02  
99.100000             1.647574E-02  
99.140000             1.650153E-02  
99.180000             1.660189E-02  
99.220000             1.670225E-02  
99.260000             1.677778E-02  
99.300000             1.682845E-02  
99.340000             1.685427E-02  
99.380000             1.695467E-02  
99.420000             1.700536E-02  
99.460000             1.710579E-02  
99.500000             1.720622E-02  
99.540000             1.730667E-02  
99.580000             1.740712E-02  
99.620000             1.748272E-02  
99.660000             1.755833E-02  
99.700000             1.758421E-02  
99.740000             1.765983E-02  
99.780000             1.773546E-02  
99.820000             1.781110E-02  
99.860000             1.786188E-02  
99.900000             1.793753E-02  
99.940000             1.806296E-02  
99.980000             1.811375E-02  
100.020000            1.816455E-02  
100.060000            1.821536E-02  
100.100000            1.824129E-02  
100.140000            1.826722E-02  
100.180000            1.834293E-02  
100.220000            1.841864E-02  
100.260000            1.849437E-02  
100.300000            1.847054E-02  
100.340000            1.849649E-02  
100.380000            1.852244E-02  
100.420000            1.854840E-02  
100.460000            1.859925E-02  
100.500000            1.860032E-02  
100.540000            1.862628E-02  
100.580000            1.865225E-02  
100.620000            1.870313E-02  
100.660000            1.872910E-02  
100.700000            1.877999E-02  
100.740000            1.878106E-02  
100.780000            1.878213E-02  
100.820000            1.880812E-02  
100.860000            1.880920E-02  
100.900000            1.883519E-02  
100.940000            1.886118E-02  
100.980000            1.893701E-02  
101.020000            1.898793E-02  
101.060000            1.898902E-02  
101.100000            1.906487E-02  
101.140000            1.911581E-02  
101.180000            1.916675E-02  
101.220000            1.926755E-02  
101.260000            1.931851E-02  
101.300000            1.936947E-02  
101.340000            1.944537E-02  
101.380000            1.947141E-02  
101.420000            1.949746E-02  
101.460000            1.952351E-02  
101.500000            1.957450E-02  
101.540000            1.962549E-02  
101.580000            1.962662E-02  
101.620000            1.967762E-02  
101.660000            1.975357E-02  
101.700000            1.980459E-02  
101.740000            1.988056E-02  
101.780000            1.993159E-02  
101.820000            1.998262E-02  
101.860000            1.998377E-02  
101.900000            2.005976E-02  
101.940000            2.011082E-02  
101.980000            2.016187E-02  
102.020000            2.018798E-02  
102.060000            2.023905E-02  
102.100000            2.024021E-02  
102.140000            2.026633E-02  
102.180000            2.031741E-02  
102.220000            2.036850E-02  
102.260000            2.041959E-02  
102.300000            2.044573E-02  
102.340000            2.049683E-02  
102.380000            2.049801E-02  
102.420000            2.049918E-02  
102.460000            2.050036E-02  
102.500000            2.050153E-02  
102.540000            2.052768E-02  
102.580000            2.052886E-02  
102.620000            2.050506E-02  
102.660000            2.050623E-02  
102.700000            2.050741E-02  
102.740000            2.053357E-02  
102.780000            2.055973E-02  
102.820000            2.061087E-02  
102.860000            2.056209E-02  
102.900000            2.051329E-02  
102.940000            2.046450E-02  
102.980000            2.044068E-02  
103.020000            2.044186E-02  
103.060000            2.041804E-02  
103.100000            2.036922E-02  
103.140000            2.034540E-02  
103.180000            2.029657E-02  
103.220000            2.027274E-02  
103.260000            2.027391E-02  
103.300000            2.027507E-02  
103.340000            2.027623E-02  
103.380000            2.030240E-02  
103.420000            2.037858E-02  
103.460000            2.040476E-02  
103.500000            2.040593E-02  
103.540000            2.040710E-02  
103.580000            2.040827E-02  
103.620000            2.045947E-02  
103.660000            2.048565E-02  
103.700000            2.043680E-02  
103.740000            2.043798E-02  
103.780000            2.043915E-02  
103.820000            2.041531E-02  
103.860000            2.031640E-02  
103.900000            2.026752E-02  
103.940000            2.021864E-02  
103.980000            2.019478E-02  
104.020000            2.017091E-02  
104.060000            2.014704E-02  
104.100000            2.009815E-02  
104.140000            2.004924E-02  
104.180000            2.002536E-02  
104.220000            1.997645E-02  
104.260000            1.992752E-02  
104.300000            1.985356E-02  
104.340000            1.977959E-02  
104.380000            1.968057E-02  
104.420000            1.958154E-02  
104.460000            1.945746E-02  
104.500000            1.938345E-02  
104.540000            1.933448E-02  
104.580000            1.921036E-02  
104.620000            1.911127E-02  
104.660000            1.898713E-02  
104.700000            1.883792E-02  
104.740000            1.871374E-02  
104.780000            1.858955E-02  
104.820000            1.851546E-02  
104.860000            1.836618E-02  
104.900000            1.826701E-02  
104.940000            1.811771E-02  
104.980000            1.799345E-02  
105.020000            1.786917E-02  
105.060000            1.776995E-02  
105.100000            1.767071E-02  
105.140000            1.754640E-02  
105.180000            1.742207E-02  
105.220000            1.729773E-02  
105.260000            1.717337E-02  
105.300000            1.704900E-02  
105.340000            1.699983E-02  
105.380000            1.692559E-02  
105.420000            1.687641E-02  
105.460000            1.680215E-02  
105.500000            1.672788E-02  
105.540000            1.660343E-02  
105.580000            1.650406E-02  
105.620000            1.640468E-02  
105.660000            1.630528E-02  
105.700000            1.620588E-02  
105.740000            1.613155E-02  
105.780000            1.605721E-02  
105.820000            1.600795E-02  
105.860000            1.593360E-02  
105.900000            1.583414E-02  
105.940000            1.578486E-02  
105.980000            1.573558E-02  
106.020000            1.568629E-02  
106.060000            1.563699E-02  
106.100000            1.556259E-02  
106.140000            1.546308E-02  
106.180000            1.536356E-02  
106.220000            1.531423E-02  
106.260000            1.521469E-02  
106.300000            1.509002E-02  
106.340000            1.499046E-02  
106.380000            1.491599E-02  
106.420000            1.479128E-02  
106.460000            1.471680E-02  
106.500000            1.464230E-02  
106.540000            1.456779E-02  
106.580000            1.449328E-02  
106.620000            1.444387E-02  
106.660000            1.436934E-02  
106.700000            1.429480E-02  
106.740000            1.422026E-02  
106.780000            1.412057E-02  
106.820000            1.404601E-02  
106.860000            1.402169E-02  
106.900000            1.394711E-02  
106.940000            1.387252E-02  
106.980000            1.382305E-02  
107.020000            1.374845E-02  
107.060000            1.367384E-02  
107.100000            1.359921E-02  
107.140000            1.354972E-02  
107.180000            1.347508E-02  
107.220000            1.345072E-02  
107.260000            1.342635E-02  
107.300000            1.335170E-02  
107.340000            1.335247E-02  
107.380000            1.327780E-02  
107.420000            1.327856E-02  
107.460000            1.327933E-02  
107.500000            1.330525E-02  
107.540000            1.330602E-02  
107.580000            1.328163E-02  
107.620000            1.330755E-02  
107.660000            1.328317E-02  
107.700000            1.325877E-02  
107.740000            1.325954E-02  
107.780000            1.328547E-02  
107.820000            1.328624E-02  
107.860000            1.326184E-02  
107.900000            1.326260E-02  
107.940000            1.328854E-02  
107.980000            1.328931E-02  
108.020000            1.329008E-02  
108.060000            1.329084E-02  
108.100000            1.329161E-02  
108.140000            1.329238E-02  
108.180000            1.329315E-02  
108.220000            1.329392E-02  
108.260000            1.329469E-02  
108.300000            1.329545E-02  
108.340000            1.329622E-02  
108.380000            1.329699E-02  
108.420000            1.327258E-02  
108.460000            1.324816E-02  
108.500000            1.322374E-02  
108.540000            1.314893E-02  
108.580000            1.312450E-02  
108.620000            1.307488E-02  
108.660000            1.305044E-02  
108.700000            1.305119E-02  
108.740000            1.302675E-02  
108.780000            1.300231E-02  
108.820000            1.297786E-02  
108.860000            1.292821E-02  
108.900000            1.287855E-02  
108.940000            1.282889E-02  
108.980000            1.280443E-02  
109.020000            1.275475E-02  
109.060000            1.265466E-02  
109.100000            1.263018E-02  
109.140000            1.255528E-02  
109.180000            1.253079E-02  
109.220000            1.248109E-02  
109.260000            1.243138E-02  
109.300000            1.238166E-02  
109.340000            1.233194E-02  
109.380000            1.228222E-02  
109.420000            1.220726E-02  
109.460000            1.218275E-02  
109.500000            1.210778E-02  
109.540000            1.208326E-02  
109.580000            1.205873E-02  
109.620000            1.200897E-02  
109.660000            1.195920E-02  
109.700000            1.190943E-02  
109.740000            1.191012E-02  
109.780000            1.188558E-02  
109.820000            1.186103E-02  
109.860000            1.188696E-02  
109.900000            1.191288E-02  
109.940000            1.193882E-02  
109.980000            1.198999E-02  
110.020000            1.201593E-02  
110.060000            1.204187E-02  
110.100000            1.206782E-02  
110.140000            1.206852E-02  
110.180000            1.209447E-02  
110.220000            1.212042E-02  
110.260000            1.217162E-02  
110.300000            1.222284E-02  
110.340000            1.227406E-02  
110.380000            1.232528E-02  
110.420000            1.237651E-02  
110.460000            1.245301E-02  
110.500000            1.250426E-02  
110.540000            1.255551E-02  
110.580000            1.260676E-02  
110.620000            1.265803E-02  
110.660000            1.273456E-02  
110.700000            1.278584E-02  
110.740000            1.283712E-02  
110.780000            1.288841E-02  
110.820000            1.293970E-02  
110.860000            1.299100E-02  
110.900000            1.304230E-02  
110.940000            1.311889E-02  
110.980000            1.317021E-02  
111.020000            1.327210E-02  
111.060000            1.337400E-02  
111.100000            1.347590E-02  
111.140000            1.357782E-02  
111.180000            1.367976E-02  
111.220000            1.378170E-02  
111.260000            1.388366E-02  
111.300000            1.398563E-02  
111.340000            1.406231E-02  
111.380000            1.416430E-02  
111.420000            1.426631E-02  
111.460000            1.436832E-02  
111.500000            1.447035E-02  
111.540000            1.454709E-02  
111.580000            1.467443E-02  
111.620000            1.480180E-02  
111.660000            1.492918E-02  
111.700000            1.503126E-02  
111.740000            1.515867E-02  
111.780000            1.528609E-02  
111.820000            1.538822E-02  
111.860000            1.554098E-02  
111.900000            1.564313E-02  
111.940000            1.577061E-02  
111.980000            1.587279E-02  
112.020000            1.600030E-02  
112.060000            1.612782E-02  
112.100000            1.620472E-02  
112.140000            1.635759E-02  
112.180000            1.645983E-02  
112.220000            1.653676E-02  
112.260000            1.663903E-02  
112.300000            1.676663E-02  
112.340000            1.684359E-02  
112.380000            1.697122E-02  
112.420000            1.707354E-02  
112.460000            1.717586E-02  
112.500000            1.727820E-02  
112.540000            1.740589E-02  
112.580000            1.753359E-02  
112.620000            1.763596E-02  
112.660000            1.776369E-02  
112.700000            1.786609E-02  
112.740000            1.796851E-02  
112.780000            1.807093E-02  
112.820000            1.817337E-02  
112.860000            1.827582E-02  
112.900000            1.840363E-02  
112.940000            1.853145E-02  
112.980000            1.860859E-02  
113.020000            1.873644E-02  
113.060000            1.883895E-02  
113.100000            1.891612E-02  
113.140000            1.899330E-02  
113.180000            1.904512E-02  
113.220000            1.909695E-02  
113.260000            1.917415E-02  
113.300000            1.927673E-02  
113.340000            1.935395E-02  
113.380000            1.938044E-02  
113.420000            1.945768E-02  
113.460000            1.953492E-02  
113.500000            1.958680E-02  
113.540000            1.966406E-02  
113.580000            1.976670E-02  
113.620000            1.984398E-02  
113.660000            1.992127E-02  
113.700000            1.999857E-02  
113.740000            2.007588E-02  
113.780000            2.010243E-02  
113.820000            2.015437E-02  
113.860000            2.018093E-02  
113.900000            2.023288E-02  
113.940000            2.028483E-02  
113.980000            2.033679E-02  
114.020000            2.038876E-02  
114.060000            2.044073E-02  
114.100000            2.049271E-02  
114.140000            2.054470E-02  
114.180000            2.059669E-02  
114.220000            2.064869E-02  
114.260000            2.070069E-02  
114.300000            2.075270E-02  
114.340000            2.077931E-02  
114.380000            2.080593E-02  
114.420000            2.083255E-02  
114.460000            2.090999E-02  
114.500000            2.101284E-02  
114.540000            2.103948E-02  
114.580000            2.116776E-02  
114.620000            2.121982E-02  
114.660000            2.124648E-02  
114.700000            2.134938E-02  
114.740000            2.137604E-02  
114.780000            2.145355E-02  
114.820000            2.153106E-02  
114.860000            2.160858E-02  
114.900000            2.168611E-02  
114.940000            2.176365E-02  
114.980000            2.184120E-02  
115.020000            2.196962E-02  
115.060000            2.209805E-02  
115.100000            2.225192E-02  
115.140000            2.232952E-02  
115.180000            2.245799E-02  
115.220000            2.253561E-02  
115.260000            2.263867E-02  
115.300000            2.271631E-02  
115.340000            2.279396E-02  
115.380000            2.284617E-02  
115.420000            2.289839E-02  
115.460000            2.295062E-02  
115.500000            2.300285E-02  
115.540000            2.305509E-02  
115.580000            2.313278E-02  
115.620000            2.321048E-02  
115.660000            2.328819E-02  
115.700000            2.336591E-02  
115.740000            2.349455E-02  
115.780000            2.359775E-02  
115.820000            2.365004E-02  
115.860000            2.377872E-02  
115.900000            2.385649E-02  
115.940000            2.393428E-02  
115.980000            2.398660E-02  
116.020000            2.406440E-02  
116.060000            2.411674E-02  
116.100000            2.416909E-02  
116.140000            2.419597E-02  
116.180000            2.427380E-02  
116.220000            2.430069E-02  
116.260000            2.435306E-02  
116.300000            2.435448E-02  
116.340000            2.440686E-02  
116.380000            2.445925E-02  
116.420000            2.448616E-02  
116.460000            2.451307E-02  
116.500000            2.448902E-02  
116.540000            2.451594E-02  
116.580000            2.456835E-02  
116.620000            2.462076E-02  
116.660000            2.467318E-02  
116.700000            2.475109E-02  
116.740000            2.477803E-02  
116.780000            2.483047E-02  
116.820000            2.480643E-02  
116.860000            2.480788E-02  
116.900000            2.486033E-02  
116.940000            2.483629E-02  
116.980000            2.486324E-02  
117.020000            2.496671E-02  
117.060000            2.494267E-02  
117.100000            2.499514E-02  
117.140000            2.504761E-02  
117.180000            2.507459E-02  
117.220000            2.515259E-02  
117.260000            2.520508E-02  
117.300000            2.528310E-02  
117.340000            2.538664E-02  
117.380000            2.541364E-02  
117.420000            2.546616E-02  
117.460000            2.551869E-02  
117.500000            2.557123E-02  
117.540000            2.562377E-02  
117.580000            2.572737E-02  
117.620000            2.580545E-02  
117.660000            2.585801E-02  
117.700000            2.585953E-02  
117.740000            2.588657E-02  
117.780000            2.591362E-02  
117.820000            2.591514E-02  
117.860000            2.596773E-02  
117.900000            2.602032E-02  
117.940000            2.604738E-02  
117.980000            2.612553E-02  
118.020000            2.617814E-02  
118.060000            2.623075E-02  
118.100000            2.625784E-02  
118.140000            2.623383E-02  
118.180000            2.623537E-02  
118.220000            2.623691E-02  
118.260000            2.623845E-02  
118.300000            2.621444E-02  
118.340000            2.613932E-02  
118.380000            2.606420E-02  
118.420000            2.601462E-02  
118.460000            2.609281E-02  
118.500000            2.614546E-02  
118.540000            2.612143E-02  
118.580000            2.617409E-02  
118.620000            2.622675E-02  
118.660000            2.627942E-02  
118.700000            2.635765E-02  
118.740000            2.643590E-02  
118.780000            2.653973E-02  
118.820000            2.669470E-02  
118.860000            2.684970E-02  
118.900000            2.695356E-02  
118.940000            2.708302E-02  
118.980000            2.716133E-02  
119.020000            2.729082E-02  
119.060000            2.736915E-02  
119.100000            2.752424E-02  
119.140000            2.770493E-02  
119.180000            2.788564E-02  
119.220000            2.798962E-02  
119.260000            2.814478E-02  
119.300000            2.827437E-02  
119.340000            2.837839E-02  
119.380000            2.850801E-02  
119.420000            2.861205E-02  
119.460000            2.874170E-02  
119.500000            2.887137E-02  
119.540000            2.889866E-02  
119.580000            2.892596E-02  
119.620000            2.892766E-02  
119.660000            2.898056E-02  
119.700000            2.903347E-02  
119.740000            2.908639E-02  
119.780000            2.913931E-02  
119.820000            2.916663E-02  
119.860000            2.924517E-02  
119.900000            2.932372E-02  
119.940000            2.932545E-02  
119.980000            2.935279E-02  
120.020000            2.943136E-02  
120.060000            2.948432E-02  
120.100000            2.948605E-02  
120.140000            2.951341E-02  
120.180000            2.954077E-02  
120.220000            2.949126E-02  
120.260000            2.951862E-02  
120.300000            2.944348E-02  
120.340000            2.944521E-02  
120.380000            2.944695E-02  
120.420000            2.942305E-02  
120.460000            2.945041E-02  
120.500000            2.945215E-02  
120.540000            2.945388E-02  
120.580000            2.942998E-02  
120.620000            2.938043E-02  
120.660000            2.935653E-02  
120.700000            2.933261E-02  
120.740000            2.933434E-02  
120.780000            2.933607E-02  
120.820000            2.936344E-02  
120.860000            2.936517E-02  
120.900000            2.936690E-02  
120.940000            2.939428E-02  
120.980000            2.942166E-02  
121.020000            2.950035E-02  
121.060000            2.955340E-02  
121.100000            2.952948E-02  
121.140000            2.955688E-02  
121.180000            2.955862E-02  
121.220000            2.956036E-02  
121.260000            2.958777E-02  
121.300000            2.951252E-02  
121.340000            2.943727E-02  
121.380000            2.941334E-02  
121.420000            2.941507E-02  
121.460000            2.939113E-02  
121.500000            2.934153E-02  
121.540000            2.931758E-02  
121.580000            2.926796E-02  
121.620000            2.924401E-02  
121.660000            2.919439E-02  
121.700000            2.917043E-02  
121.740000            2.914647E-02  
121.780000            2.914819E-02  
121.820000            2.914991E-02  
121.860000            2.910026E-02  
121.900000            2.907629E-02  
121.940000            2.902663E-02  
121.980000            2.892559E-02  
122.020000            2.882453E-02  
122.060000            2.869777E-02  
122.100000            2.864808E-02  
122.140000            2.857268E-02  
122.180000            2.847159E-02  
122.220000            2.837047E-02  
122.260000            2.824365E-02  
122.300000            2.816822E-02  
122.340000            2.809277E-02  
122.380000            2.796591E-02  
122.420000            2.789044E-02  
122.460000            2.781497E-02  
122.500000            2.771378E-02  
122.540000            2.756115E-02  
122.580000            2.745993E-02  
122.620000            2.733299E-02  
122.660000            2.720603E-02  
122.700000            2.707906E-02  
122.740000            2.692635E-02  
122.780000            2.679934E-02  
122.820000            2.664660E-02  
122.860000            2.649384E-02  
122.900000            2.636679E-02  
122.940000            2.623972E-02  
122.980000            2.616409E-02  
123.020000            2.606273E-02  
123.060000            2.596135E-02  
123.100000            2.588569E-02  
123.140000            2.578428E-02  
123.180000            2.565714E-02  
123.220000            2.552997E-02  
123.260000            2.542853E-02  
123.300000            2.530134E-02  
123.340000            2.514839E-02  
123.380000            2.499543E-02  
123.420000            2.489393E-02  
123.460000            2.484391E-02  
123.500000            2.474240E-02  
123.540000            2.469236E-02  
123.580000            2.464233E-02  
123.620000            2.456653E-02  
123.660000            2.451648E-02  
123.700000            2.436340E-02  
123.740000            2.428758E-02  
123.780000            2.423750E-02  
123.820000            2.416166E-02  
123.860000            2.408580E-02  
123.900000            2.400994E-02  
123.940000            2.395984E-02  
123.980000            2.385820E-02  
124.020000            2.380808E-02  
124.060000            2.375795E-02  
124.100000            2.365628E-02  
124.140000            2.360614E-02  
124.180000            2.353021E-02  
124.220000            2.337696E-02  
124.260000            2.324947E-02  
124.300000            2.312196E-02  
124.340000            2.302022E-02  
124.380000            2.286690E-02  
124.420000            2.279091E-02  
124.460000            2.263756E-02  
124.500000            2.248419E-02  
124.540000            2.233081E-02  
124.580000            2.217740E-02  
124.620000            2.202398E-02  
124.660000            2.187054E-02  
124.700000            2.174287E-02  
124.740000            2.161519E-02  
124.780000            2.151329E-02  
124.820000            2.143718E-02  
124.860000            2.133525E-02  
124.900000            2.123332E-02  
124.940000            2.113137E-02  
124.980000            2.102941E-02  
125.020000            2.092744E-02  
125.060000            2.082545E-02  
125.100000            2.077507E-02  
125.140000            2.069888E-02  
125.180000            2.064848E-02  
125.220000            2.057227E-02  
125.260000            2.052186E-02  
125.300000            2.047145E-02  
125.340000            2.039521E-02  
125.380000            2.034478E-02  
125.420000            2.032017E-02  
125.460000            2.032138E-02  
125.500000            2.029676E-02  
125.540000            2.027214E-02  
125.580000            2.027334E-02  
125.620000            2.024871E-02  
125.660000            2.024992E-02  
125.700000            2.025112E-02  
125.740000            2.025232E-02  
125.780000            2.020185E-02  
125.820000            2.015138E-02  
125.860000            2.012674E-02  
125.900000            2.010210E-02  
125.940000            2.005161E-02  
125.980000            2.000112E-02  
126.020000            1.997646E-02  
126.060000            1.995180E-02  
126.100000            1.992714E-02  
126.140000            1.990248E-02  
126.180000            1.982611E-02  
126.220000            1.977559E-02  
126.260000            1.980261E-02  
126.300000            1.977793E-02  
126.340000            1.970154E-02  
126.380000            1.972857E-02  
126.420000            1.970388E-02  
126.460000            1.970505E-02  
126.500000            1.965450E-02  
126.540000            1.965567E-02  
126.580000            1.970856E-02  
126.620000            1.970973E-02  
126.660000            1.968504E-02  
126.700000            1.971208E-02  
126.740000            1.976499E-02  
126.780000            1.976616E-02  
126.820000            1.974146E-02  
126.860000            1.984614E-02  
126.900000            1.987319E-02  
126.940000            1.984849E-02  
126.980000            1.984967E-02  
127.020000            1.985085E-02  
127.060000            1.985203E-02  
127.100000            1.987910E-02  
127.140000            1.990617E-02  
127.180000            1.993324E-02  
127.220000            1.996031E-02  
127.260000            1.996150E-02  
127.300000            1.998858E-02  
127.340000            2.001566E-02  
127.380000            2.004274E-02  
127.420000            2.006983E-02  
127.460000            2.007102E-02  
127.500000            2.009812E-02  
127.540000            2.009931E-02  
127.580000            2.015231E-02  
127.620000            2.015351E-02  
127.660000            2.015471E-02  
127.700000            2.013000E-02  
127.740000            2.013120E-02  
127.780000            2.010649E-02  
127.820000            2.010769E-02  
127.860000            2.010888E-02  
127.900000            2.008416E-02  
127.940000            2.008536E-02  
127.980000            2.003472E-02  
128.020000            2.000999E-02  
128.060000            2.003710E-02  
128.100000            2.001237E-02  
128.140000            2.003949E-02  
128.180000            2.006661E-02  
128.220000            2.006780E-02  
128.260000            2.004307E-02  
128.300000            2.007019E-02  
128.340000            2.007139E-02  
128.380000            2.007258E-02  
128.420000            2.002191E-02  
128.460000            1.994529E-02  
128.500000            1.997242E-02  
128.540000            1.997361E-02  
128.580000            1.989697E-02  
128.620000            1.976844E-02  
128.660000            1.971773E-02  
128.700000            1.971891E-02  
128.740000            1.964224E-02  
128.780000            1.961746E-02  
128.820000            1.961863E-02  
128.860000            1.961980E-02  
128.900000            1.959501E-02  
128.940000            1.957023E-02  
128.980000            1.949352E-02  
129.020000            1.944277E-02  
129.060000            1.934009E-02  
129.100000            1.923740E-02  
129.140000            1.918662E-02  
129.180000            1.910987E-02  
129.220000            1.898118E-02  
129.260000            1.887844E-02  
129.300000            1.882763E-02  
129.340000            1.875084E-02  
129.380000            1.859612E-02  
129.420000            1.849334E-02  
129.460000            1.836456E-02  
129.500000            1.828773E-02  
129.540000            1.821088E-02  
129.580000            1.810805E-02  
129.620000            1.803118E-02  
129.660000            1.792833E-02  
129.700000            1.782546E-02  
129.740000            1.769659E-02  
129.780000            1.761969E-02  
129.820000            1.756876E-02  
129.860000            1.751783E-02  
129.900000            1.746689E-02  
129.940000            1.741594E-02  
129.980000            1.733899E-02  
130.020000            1.726204E-02  
130.060000            1.721107E-02  
130.100000            1.710810E-02  
130.140000            1.705712E-02  
130.180000            1.700613E-02  
130.220000            1.692913E-02  
130.260000            1.682611E-02  
130.300000            1.674910E-02  
130.340000            1.672409E-02  
130.380000            1.662104E-02  
130.420000            1.649197E-02  
130.460000            1.638890E-02  
130.500000            1.633785E-02  
130.540000            1.623476E-02  
130.580000            1.618369E-02  
130.620000            1.615863E-02  
130.660000            1.610756E-02  
130.700000            1.600442E-02  
130.740000            1.595333E-02  
130.780000            1.592826E-02  
130.820000            1.595524E-02  
130.860000            1.595619E-02  
130.900000            1.593111E-02  
130.940000            1.595810E-02  
130.980000            1.601112E-02  
131.020000            1.596001E-02  
131.060000            1.598700E-02  
131.100000            1.604003E-02  
131.140000            1.606703E-02  
131.180000            1.609404E-02  
131.220000            1.609500E-02  
131.260000            1.614805E-02  
131.300000            1.620111E-02  
131.340000            1.622813E-02  
131.380000            1.625515E-02  
131.420000            1.630822E-02  
131.460000            1.625709E-02  
131.500000            1.623201E-02  
131.540000            1.623298E-02  
131.580000            1.623396E-02  
131.620000            1.620887E-02  
131.660000            1.620984E-02  
131.700000            1.621081E-02  
131.740000            1.623784E-02  
131.780000            1.621275E-02  
131.820000            1.618765E-02  
131.860000            1.616255E-02  
131.900000            1.613745E-02  
131.940000            1.613842E-02  
131.980000            1.611331E-02  
132.020000            1.608820E-02  
132.060000            1.606309E-02  
132.100000            1.603797E-02  
132.140000            1.598677E-02  
132.180000            1.596165E-02  
132.220000            1.593652E-02  
132.260000            1.593747E-02  
132.300000            1.591234E-02  
132.340000            1.586112E-02  
132.380000            1.580989E-02  
132.420000            1.578475E-02  
132.460000            1.581179E-02  
132.500000            1.578664E-02  
132.540000            1.578759E-02  
132.580000            1.578853E-02  
132.620000            1.581558E-02  
132.660000            1.584263E-02  
132.700000            1.576527E-02  
132.740000            1.574011E-02  
132.780000            1.574106E-02  
132.820000            1.568979E-02  
132.860000            1.566462E-02  
132.900000            1.563945E-02  
132.940000            1.558817E-02  
132.980000            1.556299E-02  
133.020000            1.553781E-02  
133.060000            1.551263E-02  
133.100000            1.551356E-02  
133.140000            1.551449E-02  
133.180000            1.551542E-02  
133.220000            1.551635E-02  
133.260000            1.549116E-02  
133.300000            1.549208E-02  
133.340000            1.551914E-02  
133.380000            1.554620E-02  
133.420000            1.549487E-02  
133.460000            1.549580E-02  
133.500000            1.552287E-02  
133.540000            1.554993E-02  
133.580000            1.557700E-02  
133.620000            1.552566E-02  
133.660000            1.547431E-02  
133.700000            1.542296E-02  
133.740000            1.542389E-02  
133.780000            1.542481E-02  
133.820000            1.542574E-02  
133.860000            1.545281E-02  
133.900000            1.542759E-02  
133.940000            1.540237E-02  
133.980000            1.545560E-02  
134.020000            1.550883E-02  
134.060000            1.553592E-02  
134.100000            1.558916E-02  
134.140000            1.566857E-02  
134.180000            1.572183E-02  
134.220000            1.572278E-02  
134.260000            1.572372E-02  
134.300000            1.572467E-02  
134.340000            1.575178E-02  
134.380000            1.577889E-02  
134.420000            1.580601E-02  
134.460000            1.588547E-02  
134.500000            1.601729E-02  
134.540000            1.607060E-02  
134.580000            1.612391E-02  
134.620000            1.615106E-02  
134.660000            1.617821E-02  
134.700000            1.623154E-02  
134.740000            1.628488E-02  
134.780000            1.631204E-02  
134.820000            1.631302E-02  
134.860000            1.636637E-02  
134.900000            1.636736E-02  
134.940000            1.636834E-02  
134.980000            1.636933E-02  
135.020000            1.637031E-02  
135.060000            1.642369E-02  
135.100000            1.642467E-02  
135.140000            1.645186E-02  
135.180000            1.645285E-02  
135.220000            1.650624E-02  
135.260000            1.645483E-02  
135.300000            1.648202E-02  
135.340000            1.650922E-02  
135.380000            1.648401E-02  
135.420000            1.645879E-02  
135.460000            1.645978E-02  
135.500000            1.646077E-02  
135.540000            1.648797E-02  
135.580000            1.646275E-02  
135.620000            1.648996E-02  
135.660000            1.646473E-02  
135.700000            1.649195E-02  
135.740000            1.651916E-02  
135.780000            1.654638E-02  
135.820000            1.654737E-02  
135.860000            1.654837E-02  
135.900000            1.652314E-02  
135.940000            1.652413E-02  
135.980000            1.649890E-02  
136.020000            1.649989E-02  
136.060000            1.652712E-02  
136.100000            1.647565E-02  
136.140000            1.647664E-02  
136.180000            1.647763E-02  
136.220000            1.645238E-02  
136.260000            1.642713E-02  
136.300000            1.640188E-02  
136.340000            1.637662E-02  
136.380000            1.635137E-02  
136.420000            1.632610E-02  
136.460000            1.630084E-02  
136.500000            1.630182E-02  
136.540000            1.622405E-02  
136.580000            1.622502E-02  
136.620000            1.619975E-02  
136.660000            1.614821E-02  
136.700000            1.609666E-02  
136.740000            1.604511E-02  
136.780000            1.601982E-02  
136.820000            1.594200E-02  
136.860000            1.586416E-02  
136.900000            1.578632E-02  
136.940000            1.573473E-02  
136.980000            1.563060E-02  
137.020000            1.552646E-02  
137.060000            1.542230E-02  
137.100000            1.534441E-02  
137.140000            1.524023E-02  
137.180000            1.518860E-02  
137.220000            1.513695E-02  
137.260000            1.505902E-02  
137.300000            1.503365E-02  
137.340000            1.500827E-02  
137.380000            1.498289E-02  
137.420000            1.487865E-02  
137.460000            1.487955E-02  
137.500000            1.480157E-02  
137.540000            1.480247E-02  
137.580000            1.477707E-02  
137.620000            1.480426E-02  
137.660000            1.475256E-02  
137.700000            1.475345E-02  
137.740000            1.480694E-02  
137.780000            1.480783E-02  
137.820000            1.475612E-02  
137.860000            1.473071E-02  
137.900000            1.478421E-02  
137.940000            1.478510E-02  
137.980000            1.478600E-02  
138.020000            1.481320E-02  
138.060000            1.484041E-02  
138.100000            1.484130E-02  
138.140000            1.484220E-02  
138.180000            1.484310E-02  
138.220000            1.479136E-02  
138.260000            1.479225E-02  
138.300000            1.479315E-02  
138.340000            1.479404E-02  
138.380000            1.479493E-02  
138.420000            1.474317E-02  
138.460000            1.469141E-02  
138.500000            1.463964E-02  
138.540000            1.458786E-02  
138.580000            1.456241E-02  
138.620000            1.458962E-02  
138.660000            1.456417E-02  
138.700000            1.456505E-02  
138.740000            1.456593E-02  
138.780000            1.461949E-02  
138.820000            1.462038E-02  
138.860000            1.464761E-02  
138.900000            1.467484E-02  
138.940000            1.470207E-02  
138.980000            1.475566E-02  
139.020000            1.483561E-02  
139.060000            1.483651E-02  
139.100000            1.486376E-02  
139.140000            1.486466E-02  
139.180000            1.491827E-02  
139.220000            1.491918E-02  
139.260000            1.494644E-02  
139.300000            1.500007E-02  
139.340000            1.497461E-02  
139.380000            1.500188E-02  
139.420000            1.502916E-02  
139.460000            1.503007E-02  
139.500000            1.503098E-02  
139.540000            1.505826E-02  
139.580000            1.505917E-02  
139.620000            1.511284E-02  
139.660000            1.516650E-02  
139.700000            1.519380E-02  
139.740000            1.516834E-02  
139.780000            1.514288E-02  
139.820000            1.514380E-02  
139.860000            1.517110E-02  
139.900000            1.517202E-02  
139.940000            1.519933E-02  
139.980000            1.517386E-02  
140.020000            1.517478E-02  
140.060000            1.520209E-02  
140.100000            1.520301E-02  
140.140000            1.520393E-02  
140.180000            1.525765E-02  
140.220000            1.533777E-02  
140.260000            1.533870E-02  
140.300000            1.536603E-02  
140.340000            1.544617E-02  
140.380000            1.552633E-02  
140.420000            1.555368E-02  
140.460000            1.558103E-02  
140.500000            1.560838E-02  
140.540000            1.566215E-02  
140.580000            1.571593E-02  
140.620000            1.576971E-02  
140.660000            1.582350E-02  
140.700000            1.585088E-02  
140.740000            1.587826E-02  
140.780000            1.590565E-02  
140.820000            1.595946E-02  
140.860000            1.601327E-02  
140.900000            1.606710E-02  
140.940000            1.612093E-02  
140.980000            1.620120E-02  
141.020000            1.625504E-02  
141.060000            1.628246E-02  
141.100000            1.630988E-02  
141.140000            1.633731E-02  
141.180000            1.633830E-02  
141.220000            1.633929E-02  
141.260000            1.634028E-02  
141.300000            1.631483E-02  
141.340000            1.634227E-02  
141.380000            1.631682E-02  
141.420000            1.629136E-02  
141.460000            1.629235E-02  
141.500000            1.629334E-02  
141.540000            1.629433E-02  
141.580000            1.629532E-02  
141.620000            1.629631E-02  
141.660000            1.629730E-02  
141.700000            1.629829E-02  
141.740000            1.627282E-02  
141.780000            1.627381E-02  
141.820000            1.630126E-02  
141.860000            1.630225E-02  
141.900000            1.627677E-02  
141.940000            1.633070E-02  
141.980000            1.635816E-02  
142.020000            1.635916E-02  
142.060000            1.636015E-02  
142.100000            1.636115E-02  
142.140000            1.630919E-02  
142.180000            1.631018E-02  
142.220000            1.628469E-02  
142.260000            1.625920E-02  
142.300000            1.626019E-02  
142.340000            1.623470E-02  
142.380000            1.623568E-02  
142.420000            1.623667E-02  
142.460000            1.621117E-02  
142.500000            1.621215E-02  
142.540000            1.618665E-02  
142.580000            1.629361E-02  
142.620000            1.626810E-02  
142.660000            1.618960E-02  
142.700000            1.616409E-02  
142.740000            1.608557E-02  
142.780000            1.603355E-02  
142.820000            1.600802E-02  
142.860000            1.598249E-02  
142.900000            1.595696E-02  
142.940000            1.587840E-02  
142.980000            1.593239E-02  
143.020000            1.593336E-02  
143.060000            1.596084E-02  
143.100000            1.596182E-02  
143.140000            1.601582E-02  
143.180000            1.601679E-02  
143.220000            1.599125E-02  
143.260000            1.601875E-02  
143.300000            1.604624E-02  
143.340000            1.604722E-02  
143.380000            1.602167E-02  
143.420000            1.607570E-02  
143.460000            1.607668E-02  
143.500000            1.605113E-02  
143.540000            1.610517E-02  
143.580000            1.613269E-02  
143.620000            1.613367E-02  
143.660000            1.613466E-02  
143.700000            1.618872E-02  
143.740000            1.618970E-02  
143.780000            1.619069E-02  
143.820000            1.616513E-02  
143.860000            1.621921E-02  
143.900000            1.622020E-02  
143.940000            1.622119E-02  
143.980000            1.624873E-02  
144.020000            1.624972E-02  
144.060000            1.627726E-02  
144.100000            1.622514E-02  
144.140000            1.625269E-02  
144.180000            1.622712E-02  
144.220000            1.620155E-02  
144.260000            1.625566E-02  
144.300000            1.625666E-02  
144.340000            1.625765E-02  
144.380000            1.631177E-02  
144.420000            1.636590E-02  
144.460000            1.642004E-02  
144.500000            1.644761E-02  
144.540000            1.650176E-02  
144.580000            1.652935E-02  
144.620000            1.655693E-02  
144.660000            1.658452E-02  
144.700000            1.661211E-02  
144.740000            1.663970E-02  
144.780000            1.666730E-02  
144.820000            1.669491E-02  
144.860000            1.674910E-02  
144.900000            1.677671E-02  
144.940000            1.677773E-02  
144.980000            1.680535E-02  
145.020000            1.685956E-02  
145.060000            1.694037E-02  
145.100000            1.702119E-02  
145.140000            1.707542E-02  
145.180000            1.715626E-02  
145.220000            1.721051E-02  
145.260000            1.729137E-02  
145.300000            1.742544E-02  
145.340000            1.745311E-02  
145.380000            1.756061E-02  
145.420000            1.758829E-02  
145.460000            1.766920E-02  
145.500000            1.775011E-02  
145.540000            1.785765E-02  
145.580000            1.796520E-02  
145.620000            1.807277E-02  
145.660000            1.815373E-02  
145.700000            1.823470E-02  
145.740000            1.831568E-02  
145.780000            1.847654E-02  
145.820000            1.853091E-02  
145.860000            1.861193E-02  
145.900000            1.869295E-02  
145.940000            1.877398E-02  
145.980000            1.888166E-02  
146.020000            1.898934E-02  
146.060000            1.909704E-02  
146.100000            1.920476E-02  
146.140000            1.931248E-02  
146.180000            1.939358E-02  
146.220000            1.947469E-02  
146.260000            1.955581E-02  
146.300000            1.963694E-02  
146.340000            1.974473E-02  
146.380000            1.982588E-02  
146.420000            1.993369E-02  
146.460000            2.001486E-02  
146.500000            2.009604E-02  
146.540000            2.015058E-02  
146.580000            2.020513E-02  
146.620000            2.028634E-02  
146.660000            2.034090E-02  
146.700000            2.034214E-02  
146.740000            2.042338E-02  
146.780000            2.042463E-02  
146.820000            2.039921E-02  
146.860000            2.040046E-02  
146.900000            2.037504E-02  
146.940000            2.037629E-02  
146.980000            2.037754E-02  
147.020000            2.037878E-02  
147.060000            2.043338E-02  
147.100000            2.046131E-02  
147.140000            2.056928E-02  
147.180000            2.059722E-02  
147.220000            2.059848E-02  
147.260000            2.065311E-02  
147.300000            2.073443E-02  
147.340000            2.078908E-02  
147.380000            2.084373E-02  
147.420000            2.087170E-02  
147.460000            2.089967E-02  
147.500000            2.090095E-02  
147.540000            2.087554E-02  
147.580000            2.087682E-02  
147.620000            2.085140E-02  
147.660000            2.087938E-02  
147.700000            2.093406E-02  
147.740000            2.096205E-02  
147.780000            2.099004E-02  
147.820000            2.101803E-02  
147.860000            2.101932E-02  
147.900000            2.102061E-02  
147.940000            2.102190E-02  
147.980000            2.102319E-02  
148.020000            2.105119E-02  
148.060000            2.105248E-02  
148.100000            2.105378E-02  
148.140000            2.105507E-02  
148.180000            2.105636E-02  
148.220000            2.100421E-02  
148.260000            2.100549E-02  
148.300000            2.100678E-02  
148.340000            2.100807E-02  
148.380000            2.103609E-02  
148.420000            2.103738E-02  
148.460000            2.103867E-02  
148.500000            2.098650E-02  
148.540000            2.093431E-02  
148.580000            2.088212E-02  
148.620000            2.082993E-02  
148.660000            2.077772E-02  
148.700000            2.072551E-02  
148.740000            2.067330E-02  
148.780000            2.062108E-02  
148.820000            2.056885E-02  
148.860000            2.048986E-02  
148.900000            2.046437E-02  
148.940000            2.041212E-02  
148.980000            2.035987E-02  
149.020000            2.028085E-02  
149.060000            2.020183E-02  
149.100000            2.009603E-02  
149.140000            2.001699E-02  
149.180000            1.991117E-02  
149.220000            1.985886E-02  
149.260000            1.977979E-02  
149.300000            1.972747E-02  
149.340000            1.964837E-02  
149.380000            1.962281E-02  
149.420000            1.959725E-02  
149.460000            1.957168E-02  
149.500000            1.954610E-02  
149.540000            1.952053E-02  
149.580000            1.949495E-02  
149.620000            1.946937E-02  
149.660000            1.941700E-02  
149.700000            1.944498E-02  
149.740000            1.941939E-02  
149.780000            1.939380E-02  
149.820000            1.931463E-02  
149.860000            1.926223E-02  
149.900000            1.920983E-02  
149.940000            1.915743E-02  
149.980000            1.913181E-02  
150.020000            1.905260E-02  
150.060000            1.900017E-02  
150.100000            1.892094E-02  
150.140000            1.881490E-02  
150.180000            1.876245E-02  
150.220000            1.865639E-02  
150.260000            1.865753E-02  
150.300000            1.857826E-02  
150.340000            1.852578E-02  
150.380000            1.844649E-02  
150.420000            1.839400E-02  
150.460000            1.834150E-02  
150.500000            1.828899E-02  
150.540000            1.823648E-02  
150.580000            1.813033E-02  
150.620000            1.807780E-02  
150.660000            1.797162E-02  
150.700000            1.794590E-02  
150.740000            1.792018E-02  
150.780000            1.778714E-02  
150.820000            1.776141E-02  
150.860000            1.768201E-02  
150.900000            1.757577E-02  
150.940000            1.749634E-02  
150.980000            1.744375E-02  
151.020000            1.741799E-02  
151.060000            1.736538E-02  
151.100000            1.739329E-02  
151.140000            1.736752E-02  
151.180000            1.736859E-02  
151.220000            1.736966E-02  
151.260000            1.739758E-02  
151.300000            1.742550E-02  
151.340000            1.750713E-02  
151.380000            1.756192E-02  
151.420000            1.761671E-02  
151.460000            1.769837E-02  
151.500000            1.778003E-02  
151.540000            1.786171E-02  
151.580000            1.788967E-02  
151.620000            1.791764E-02  
151.660000            1.794561E-02  
151.700000            1.794671E-02  
151.740000            1.800156E-02  
151.780000            1.797580E-02  
151.820000            1.797691E-02  
151.860000            1.795114E-02  
151.900000            1.792538E-02  
151.940000            1.787273E-02  
151.980000            1.787383E-02  
152.020000            1.779430E-02  
152.060000            1.774164E-02  
152.100000            1.774273E-02  
152.140000            1.771694E-02  
152.180000            1.774492E-02  
152.220000            1.779979E-02  
152.260000            1.785467E-02  
152.300000            1.790956E-02  
152.340000            1.788377E-02  
152.380000            1.793866E-02  
152.420000            1.793977E-02  
152.460000            1.796778E-02  
152.500000            1.799579E-02  
152.540000            1.802380E-02  
152.580000            1.805181E-02  
152.620000            1.810674E-02  
152.660000            1.810786E-02  
152.700000            1.813588E-02  
152.740000            1.813701E-02  
152.780000            1.816504E-02  
152.820000            1.819307E-02  
152.860000            1.819420E-02  
152.900000            1.822224E-02  
152.940000            1.822336E-02  
152.980000            1.825141E-02  
153.020000            1.825254E-02  
153.060000            1.830751E-02  
153.100000            1.836249E-02  
153.140000            1.830978E-02  
153.180000            1.833784E-02  
153.220000            1.831204E-02  
153.260000            1.828624E-02  
153.300000            1.828737E-02  
153.340000            1.831544E-02  
153.380000            1.834351E-02  
153.420000            1.842546E-02  
153.460000            1.845354E-02  
153.500000            1.848162E-02  
153.540000            1.853665E-02  
153.580000            1.856474E-02  
153.620000            1.864673E-02  
153.660000            1.872872E-02  
153.700000            1.875683E-02  
153.740000            1.881189E-02  
153.780000            1.884001E-02  
153.820000            1.889509E-02  
153.860000            1.892321E-02  
153.900000            1.897830E-02  
153.940000            1.897947E-02  
153.980000            1.900761E-02  
154.020000            1.903575E-02  
154.060000            1.906389E-02  
154.100000            1.909204E-02  
154.140000            1.912019E-02  
154.180000            1.914834E-02  
154.220000            1.914953E-02  
154.260000            1.915072E-02  
154.300000            1.917888E-02  
154.340000            1.918006E-02  
154.380000            1.923521E-02  
154.420000            1.926338E-02  
154.460000            1.934552E-02  
154.500000            1.931973E-02  
154.540000            1.937490E-02  
154.580000            1.940309E-02  
154.620000            1.943128E-02  
154.660000            1.948646E-02  
154.700000            1.951466E-02  
154.740000            1.954286E-02  
154.780000            1.949008E-02  
154.820000            1.954528E-02  
154.860000            1.954650E-02  
154.900000            1.946671E-02  
154.940000            1.949492E-02  
154.980000            1.952313E-02  
155.020000            1.947033E-02  
155.060000            1.944453E-02  
155.100000            1.941873E-02  
155.140000            1.936592E-02  
155.180000            1.936712E-02  
155.220000            1.934130E-02  
155.260000            1.934250E-02  
155.300000            1.928967E-02  
155.340000            1.926385E-02  
155.380000            1.923803E-02  
155.420000            1.921220E-02  
155.460000            1.918637E-02  
155.500000            1.916053E-02  
155.540000            1.916172E-02  
155.580000            1.913588E-02  
155.620000            1.908301E-02  
155.660000            1.908420E-02  
155.700000            1.903132E-02  
155.740000            1.897843E-02  
155.780000            1.892553E-02  
155.820000            1.887263E-02  
155.860000            1.881972E-02  
155.900000            1.876681E-02  
155.940000            1.871389E-02  
155.980000            1.866096E-02  
156.020000            1.860803E-02  
156.060000            1.858213E-02  
156.100000            1.852919E-02  
156.140000            1.847624E-02  
156.180000            1.839622E-02  
156.220000            1.834326E-02  
156.260000            1.829028E-02  
156.300000            1.823730E-02  
156.340000            1.818432E-02  
156.380000            1.815838E-02  
156.420000            1.810539E-02  
156.460000            1.805238E-02  
156.500000            1.799937E-02  
156.540000            1.794635E-02  
156.580000            1.789333E-02  
156.620000            1.781322E-02  
156.660000            1.778726E-02  
156.700000            1.770714E-02  
156.740000            1.765409E-02  
156.780000            1.760103E-02  
156.820000            1.754796E-02  
156.860000            1.752197E-02  
156.900000            1.746889E-02  
156.940000            1.744289E-02  
156.980000            1.733563E-02  
157.020000            1.728253E-02  
157.060000            1.720234E-02  
157.100000            1.712213E-02  
157.140000            1.704192E-02  
157.180000            1.696169E-02  
157.220000            1.685436E-02  
157.260000            1.677411E-02  
157.300000            1.663965E-02  
157.340000            1.653228E-02  
157.380000            1.642489E-02  
157.420000            1.631749E-02  
157.460000            1.621008E-02  
157.500000            1.610265E-02  
157.540000            1.602233E-02  
157.580000            1.588776E-02  
157.620000            1.578030E-02  
157.660000            1.567282E-02  
157.700000            1.559244E-02  
157.740000            1.553917E-02  
157.780000            1.548590E-02  
157.820000            1.545974E-02  
157.860000            1.535221E-02  
157.900000            1.529891E-02  
157.940000            1.524561E-02  
157.980000            1.519230E-02  
158.020000            1.516612E-02  
158.060000            1.511280E-02  
158.100000            1.505947E-02  
158.140000            1.500614E-02  
158.180000            1.497994E-02  
158.220000            1.495373E-02  
158.260000            1.492752E-02  
158.300000            1.492845E-02  
158.340000            1.484795E-02  
158.380000            1.484887E-02  
158.420000            1.482265E-02  
158.460000            1.482358E-02  
158.500000            1.479735E-02  
158.540000            1.474397E-02  
158.580000            1.474489E-02  
158.620000            1.474581E-02  
158.660000            1.480104E-02  
158.700000            1.480196E-02  
158.740000            1.483005E-02  
158.780000            1.488530E-02  
158.820000            1.491339E-02  
158.860000            1.491432E-02  
158.900000            1.494242E-02  
158.940000            1.497052E-02  
158.980000            1.497146E-02  
159.020000            1.494522E-02  
159.060000            1.497333E-02  
159.100000            1.502861E-02  
159.140000            1.497519E-02  
159.180000            1.494895E-02  
159.220000            1.492270E-02  
159.260000            1.492363E-02  
159.300000            1.492456E-02  
159.340000            1.492550E-02  
159.380000            1.492643E-02  
159.420000            1.490017E-02  
159.460000            1.487391E-02  
159.500000            1.484764E-02  
159.540000            1.482138E-02  
159.580000            1.479510E-02  
159.620000            1.479603E-02  
159.660000            1.482415E-02  
159.700000            1.482508E-02  
159.740000            1.490762E-02  
159.780000            1.493575E-02  
159.820000            1.499110E-02  
159.860000            1.501925E-02  
159.900000            1.510182E-02  
159.940000            1.521161E-02  
159.980000            1.532141E-02  
